#         4977           2           8
# Fri Oct 10 11:09:03 2025
# thar_spec_MM201006_r2000.dat
# UVES high res ThAr spectrum thar_spec_MM201006.dat convolved to R=2,000
# 
# 
# 
# lambda (um)   Intensity

     0.303309      390.224
     0.303385      3542.14
     0.303460      104.439
     0.303536      49.8496
     0.303612      16.7023
     0.303688      15.2657
     0.303764      18.1758
     0.303840      9.37787
     0.303916      5.37743
     0.303992      6.37876
     0.304068      2.74855
     0.304144      14.2134
     0.304220      5.89698
     0.304296      17.1092
     0.304372      5.27101
     0.304448      3.86965
     0.304524      17.1867
     0.304600      11.9103
     0.304676      20.5545
     0.304753      19.3952
     0.304829      11.6800
     0.304905      43.9251
     0.304981      24.4181
     0.305057      44.6350
     0.305134      7.63401
     0.305210      12.7275
     0.305286      7.09549
     0.305363      6.95940
     0.305439      10.6627
     0.305515      8.37252
     0.305592      5.58122
     0.305668      6.11504
     0.305745      12.7381
     0.305821      16.9436
     0.305897      5.80858
     0.305974      4.06310
     0.306050      60.9512
     0.306127      26.7817
     0.306203      37.7120
     0.306280      32.2214
     0.306357      8.09775
     0.306433      5.49857
     0.306510      10.8521
     0.306586      17.4556
     0.306663      14.7672
     0.306740      47.6772
     0.306816      9.48267
     0.306893      59.1799
     0.306970      8.36321
     0.307047      28.8431
     0.307123      16.3467
     0.307200      38.7350
     0.307277      15.4700
     0.307354      9.20178
     0.307431      8.63284
     0.307507      21.3145
     0.307584      12.3211
     0.307661      5.53822
     0.307738      20.3827
     0.307815      11.6405
     0.307892      45.0976
     0.307969      6.80409
     0.308046      35.4333
     0.308123      5.29000
     0.308200      33.3151
     0.308277      51.2653
     0.308354      16.9754
     0.308431      9.14108
     0.308508      28.5307
     0.308585      7.77915
     0.308663      13.8669
     0.308740      12.2277
     0.308817      79.4514
     0.308894      17.2837
     0.308971      17.2890
     0.309049      15.7787
     0.309126      6.40283
     0.309203      10.6436
     0.309280      53.5043
     0.309358      180.110
     0.309435      11.5744
     0.309512      14.8313
     0.309590      11.4211
     0.309667      13.7228
     0.309745      10.7756
     0.309822      8.02996
     0.309900      9.50675
     0.309977      21.5127
     0.310055      12.6115
     0.310132      24.0979
     0.310210      8.64252
     0.310287      18.3101
     0.310365      2.35553
     0.310442      45.2289
     0.310520      33.8338
     0.310598      41.7306
     0.310675      32.4249
     0.310753      7.06393
     0.310831      110.358
     0.310908      4.33963
     0.310986      42.2751
     0.311064      16.7361
     0.311142      14.0808
     0.311219      11.2586
     0.311297      6.51443
     0.311375      11.8892
     0.311453      18.3052
     0.311531      6.65869
     0.311609      89.0407
     0.311686      13.7067
     0.311764      19.6077
     0.311842      3.42891
     0.311920      83.3418
     0.311998      6.44083
     0.312076      18.8722
     0.312154      3.08818
     0.312232      4.42848
     0.312310      41.9616
     0.312388      8.95717
     0.312467      41.6310
     0.312545      124.447
     0.312623      12.9466
     0.312701      12.5579
     0.312779      17.4121
     0.312857      6.93804
     0.312936      10.6213
     0.313014      11.5110
     0.313092      38.0164
     0.313170      7.01337
     0.313249      13.7907
     0.313327      11.1392
     0.313405      53.2108
     0.313484      18.7573
     0.313562      5.86458
     0.313640      96.2010
     0.313719      57.4484
     0.313797      14.8841
     0.313876      109.597
     0.313954      66.2723
     0.314033      52.5117
     0.314111      9.05952
     0.314190      16.3304
     0.314268      28.2579
     0.314347      2.84476
     0.314425      8.12078
     0.314504      8.64833
     0.314583      122.351
     0.314661      10.1151
     0.314740      13.4673
     0.314819      17.5746
     0.314897      3.20544
     0.314976      11.5438
     0.315055      32.5018
     0.315133      22.1588
     0.315212      14.0046
     0.315291      9.80995
     0.315370      26.9538
     0.315449      139.614
     0.315528      10.6526
     0.315606      34.2527
     0.315685      26.8310
     0.315764      18.9891
     0.315843      16.5164
     0.315922      9.68017
     0.316001      13.1531
     0.316080      8.11475
     0.316159      75.0981
     0.316238      10.5796
     0.316317      17.3227
     0.316396      8.80456
     0.316475      7.94921
     0.316555      30.3524
     0.316634      22.9079
     0.316713      8.32323
     0.316792      21.6182
     0.316871      10.9966
     0.316950      166.386
     0.317030      18.1415
     0.317109      66.5124
     0.317188      31.0559
     0.317268      12.6091
     0.317347      106.772
     0.317426      54.5991
     0.317506      9.65485
     0.317585      80.6661
     0.317664      15.0756
     0.317744      27.9986
     0.317823      110.229
     0.317903      93.1124
     0.317982      167.252
     0.318062      38.8682
     0.318141      98.0838
     0.318221      15.9681
     0.318300      10.5310
     0.318380      15.9275
     0.318459      33.6683
     0.318539      8.21234
     0.318619      6.29800
     0.318698      8.77933
     0.318778      22.1627
     0.318858      174.392
     0.318937      11.2698
     0.319017      46.3577
     0.319097      48.9684
     0.319177      22.0279
     0.319256      100.188
     0.319336      18.7183
     0.319416      41.4594
     0.319496      21.4862
     0.319576      142.113
     0.319656      9.43981
     0.319736      16.4970
     0.319816      49.3185
     0.319896      32.2379
     0.319975      4.96364
     0.320055      10.5984
     0.320135      5.87948
     0.320216      22.8343
     0.320296      12.9223
     0.320376      15.7203
     0.320456      41.5175
     0.320536      36.8564
     0.320616      11.8413
     0.320696      10.4941
     0.320776      31.6081
     0.320857      6.24473
     0.320937      7.13554
     0.321017      31.9054
     0.321097      82.3128
     0.321177      46.9750
     0.321258      26.4942
     0.321338      29.3082
     0.321418      80.9350
     0.321499      20.6524
     0.321579      18.7288
     0.321660      40.3040
     0.321740      41.2465
     0.321820      13.8099
     0.321901      14.4125
     0.321981      6.54089
     0.322062      39.9167
     0.322142      72.6412
     0.322223      24.2518
     0.322303      28.2092
     0.322384      9.40958
     0.322465      9.12317
     0.322545      64.7811
     0.322626      43.5941
     0.322707      14.4524
     0.322787      33.8823
     0.322868      43.7629
     0.322949      7.26429
     0.323029      11.5469
     0.323110      27.0062
     0.323191      146.432
     0.323272      93.7351
     0.323352      12.2193
     0.323433      11.3145
     0.323514      51.2240
     0.323595      68.2879
     0.323676      28.6305
     0.323757      15.7230
     0.323838      185.751
     0.323919      79.9739
     0.324000      23.5805
     0.324081      98.8810
     0.324162      20.3694
     0.324243      31.6302
     0.324324      24.7134
     0.324405      334.712
     0.324486      88.0877
     0.324567      59.2300
     0.324648      12.9290
     0.324729      195.389
     0.324811      15.8652
     0.324892      30.5475
     0.324973      126.672
     0.325054      3.93133
     0.325136      8.97767
     0.325217      117.522
     0.325298      28.9599
     0.325380      148.711
     0.325461      16.8290
     0.325542      20.3525
     0.325624      80.5085
     0.325705      206.293
     0.325786      52.9053
     0.325868      47.4532
     0.325949      40.7176
     0.326031      6.74914
     0.326112      38.0948
     0.326194      12.9292
     0.326275      111.975
     0.326357      63.4371
     0.326439      27.6640
     0.326520      14.7819
     0.326602      8.82614
     0.326683      53.8920
     0.326765      10.6096
     0.326847      12.6139
     0.326929      12.1634
     0.327010      18.7961
     0.327092      52.6135
     0.327174      214.189
     0.327256      6.99409
     0.327337      16.2072
     0.327419      94.2854
     0.327501      31.0004
     0.327583      34.2165
     0.327665      16.2244
     0.327747      12.3077
     0.327829      8.06634
     0.327911      14.8231
     0.327993      16.0625
     0.328075      56.8719
     0.328157      122.701
     0.328239      59.8317
     0.328321      22.1682
     0.328403      8.18252
     0.328485      7.82631
     0.328567      143.319
     0.328649      40.4811
     0.328731      13.9864
     0.328814      131.830
     0.328896      10.2188
     0.328978      29.6183
     0.329060      22.5464
     0.329143      113.039
     0.329225      84.7041
     0.329307      38.3808
     0.329389      229.014
     0.329472      17.2423
     0.329554      34.8220
     0.329637      16.5563
     0.329719      10.2641
     0.329801      59.9365
     0.329884      12.5899
     0.329966      20.5548
     0.330049      16.7320
     0.330131      173.735
     0.330214      46.3214
     0.330296      10.7038
     0.330379      84.9781
     0.330462      825.050
     0.330544      64.8315
     0.330627      26.0934
     0.330709      177.130
     0.330792      15.1370
     0.330875      20.5996
     0.330958      239.006
     0.331040      92.9423
     0.331123      27.8170
     0.331206      11.0600
     0.331289      25.3755
     0.331371      66.0203
     0.331454      42.4028
     0.331537      14.6789
     0.331620      16.0312
     0.331703      7.36875
     0.331786      19.0381
     0.331869      22.3644
     0.331952      39.8968
     0.332035      59.8178
     0.332118      81.1990
     0.332201      43.7745
     0.332284      15.0707
     0.332367      7.24131
     0.332450      96.2287
     0.332533      213.538
     0.332616      24.3014
     0.332699      71.6402
     0.332783      16.4223
     0.332866      22.0628
     0.332949      52.7154
     0.333032      721.163
     0.333116      25.2804
     0.333199      18.9135
     0.333282      329.805
     0.333365      15.0048
     0.333449      107.393
     0.333532      47.9808
     0.333615      68.4623
     0.333699      28.0103
     0.333782      124.486
     0.333866      37.0856
     0.333949      11.8181
     0.334033      36.0288
     0.334116      27.7761
     0.334200      16.6575
     0.334283      19.9759
     0.334367      32.6045
     0.334450      37.5691
     0.334534      20.3404
     0.334618      68.4628
     0.334701      25.1248
     0.334785      23.3561
     0.334869      560.897
     0.334952      22.6315
     0.335036      28.1133
     0.335120      499.174
     0.335204      18.9484
     0.335288      15.6442
     0.335371      19.5810
     0.335455      77.7447
     0.335539      113.886
     0.335623      19.3721
     0.335707      40.3829
     0.335791      12.4973
     0.335875      198.789
     0.335959      29.6704
     0.336043      29.0555
     0.336127      216.479
     0.336211      88.5897
     0.336295      39.7212
     0.336379      27.7160
     0.336463      47.4535
     0.336547      134.477
     0.336631      56.0679
     0.336715      26.1129
     0.336800      76.8850
     0.336884      11.8569
     0.336968      34.2627
     0.337052      26.5290
     0.337136      23.4618
     0.337221      38.4959
     0.337305      97.6249
     0.337389      112.428
     0.337474      218.030
     0.337558      32.5158
     0.337642      403.216
     0.337727      38.5338
     0.337811      11.9726
     0.337896      82.9384
     0.337980      42.6249
     0.338065      210.277
     0.338149      26.3451
     0.338234      10.2272
     0.338318      41.6827
     0.338403      26.1966
     0.338488      12.1141
     0.338572      68.1871
     0.338657      52.2449
     0.338741      18.9391
     0.338826      245.525
     0.338911      97.5475
     0.338996      78.9070
     0.339080      36.7000
     0.339165      325.304
     0.339250      29.5604
     0.339335      72.7311
     0.339420      33.8342
     0.339504      26.9744
     0.339589      21.7699
     0.339674      186.299
     0.339759      499.728
     0.339844      450.470
     0.339929      18.4272
     0.340014      10.9076
     0.340099      12.8210
     0.340184      92.5076
     0.340269      275.742
     0.340354      51.7744
     0.340439      36.0720
     0.340524      256.352
     0.340609      51.8503
     0.340695      14.9735
     0.340780      40.9147
     0.340865      308.119
     0.340950      32.7888
     0.341035      42.9430
     0.341121      21.5904
     0.341206      25.0377
     0.341291      259.192
     0.341377      28.9695
     0.341462      208.711
     0.341547      28.7510
     0.341633      24.9157
     0.341718      68.6424
     0.341804      7.33086
     0.341889      78.6516
     0.341974      3.53747
     0.342060      20.4272
     0.342145      606.511
     0.342231      112.432
     0.342317      30.8369
     0.342402      690.702
     0.342488      37.7032
     0.342573      39.7634
     0.342659      15.7617
     0.342745      46.5819
     0.342830      221.333
     0.342916      373.114
     0.343002      137.338
     0.343088      37.9184
     0.343173      33.8302
     0.343259      13.4432
     0.343345      54.1275
     0.343431      263.184
     0.343517      36.8213
     0.343602      313.393
     0.343688      734.857
     0.343774      336.348
     0.343860      43.5479
     0.343946      204.368
     0.344032      7.92407
     0.344118      33.4118
     0.344204      3.64511
     0.344290      90.1531
     0.344376      18.5403
     0.344462      7.53108
     0.344549      50.0417
     0.344635      96.5291
     0.344721      18.1010
     0.344807      14.1449
     0.344893      45.3796
     0.344979      34.7558
     0.345066      20.8696
     0.345152      207.563
     0.345238      43.1656
     0.345325      93.3999
     0.345411      119.576
     0.345497      38.6603
     0.345584      40.3390
     0.345670      148.815
     0.345756      30.8440
     0.345843      82.8681
     0.345929      39.2245
     0.346016      12.0367
     0.346102      1532.34
     0.346189      197.416
     0.346275      66.4366
     0.346362      38.9731
     0.346449      110.663
     0.346535      100.483
     0.346622      307.499
     0.346708      70.2901
     0.346795      75.0994
     0.346882      10.6140
     0.346969      383.109
     0.347055      59.4759
     0.347142      172.657
     0.347229      74.1455
     0.347316      33.6236
     0.347403      22.1690
     0.347489      21.6858
     0.347576      27.4269
     0.347663      621.733
     0.347750      20.4353
     0.347837      153.578
     0.347924      105.527
     0.348011      168.252
     0.348098      29.9052
     0.348185      15.5538
     0.348272      69.0454
     0.348359      36.3773
     0.348446      27.1659
     0.348533      45.2241
     0.348620      653.723
     0.348708      27.3341
     0.348795      29.6685
     0.348882      80.7073
     0.348969      90.5371
     0.349056      118.023
     0.349144      1244.51
     0.349231      33.7330
     0.349318      65.4009
     0.349406      5.23053
     0.349493      11.5363
     0.349580      140.399
     0.349668      228.450
     0.349755      35.4401
     0.349843      153.686
     0.349930      75.4042
     0.350017      69.6802
     0.350105      46.4203
     0.350193      69.4050
     0.350280      74.6666
     0.350368      124.653
     0.350455      21.8899
     0.350543      37.0891
     0.350630      68.8001
     0.350718      44.0482
     0.350806      36.8941
     0.350894      64.1831
     0.350981      563.981
     0.351069      88.8360
     0.351157      363.788
     0.351245      18.6232
     0.351332      18.8913
     0.351420      667.598
     0.351508      129.109
     0.351596      27.9960
     0.351684      21.3636
     0.351772      17.8855
     0.351860      239.563
     0.351948      13.7692
     0.352036      112.553
     0.352124      112.258
     0.352212      87.7797
     0.352300      13.0467
     0.352388      135.930
     0.352476      209.101
     0.352564      7.77331
     0.352652      175.528
     0.352740      48.8974
     0.352829      55.4743
     0.352917      173.110
     0.353005      46.4668
     0.353093      131.294
     0.353181      153.718
     0.353270      18.3928
     0.353358      42.7346
     0.353446      38.3718
     0.353535      247.396
     0.353623      52.4288
     0.353712      38.0997
     0.353800      17.2543
     0.353888      63.9817
     0.353977      379.934
     0.354065      11.3842
     0.354154      15.8646
     0.354242      56.2006
     0.354331      53.8326
     0.354420      113.536
     0.354508      76.7013
     0.354597      1718.05
     0.354685      21.3765
     0.354774      86.1537
     0.354863      150.580
     0.354952      122.961
     0.355040      71.7887
     0.355129      299.746
     0.355218      15.1000
     0.355307      44.3068
     0.355395      177.481
     0.355484      230.471
     0.355573      73.2270
     0.355662      200.739
     0.355751      60.1341
     0.355840      20.4868
     0.355929      2138.75
     0.356018      163.584
     0.356107      2260.28
     0.356196      168.635
     0.356285      36.1255
     0.356374      74.8866
     0.356463      257.591
     0.356552      87.2631
     0.356641      55.8736
     0.356731      804.162
     0.356820      18.3717
     0.356909      15.2607
     0.356998      188.714
     0.357087      31.8709
     0.357177      30.1404
     0.357266      67.1779
     0.357355      14.6145
     0.357445      19.4258
     0.357534      142.310
     0.357623      1004.01
     0.357713      37.5446
     0.357802      26.8620
     0.357892      44.2471
     0.357981      96.7463
     0.358071      11.3005
     0.358160      508.927
     0.358250      918.149
     0.358339      95.4863
     0.358429      223.321
     0.358518      27.4240
     0.358608      26.9835
     0.358698      17.2069
     0.358787      75.3420
     0.358877      1496.25
     0.358967      272.419
     0.359057      42.6637
     0.359146      275.581
     0.359236      214.814
     0.359326      57.5162
     0.359416      33.9697
     0.359506      71.2971
     0.359595      82.0426
     0.359685      13.4587
     0.359775      678.248
     0.359865      32.3577
     0.359955      51.7185
     0.360045      51.0147
     0.360135      95.1322
     0.360225      15.3502
     0.360315      73.0999
     0.360405      38.9663
     0.360495      110.361
     0.360586      196.071
     0.360676      158.975
     0.360766      19.7095
     0.360856      184.103
     0.360946      324.248
     0.361037      162.562
     0.361127      50.0955
     0.361217      1617.27
     0.361307      486.258
     0.361398      272.671
     0.361488      244.339
     0.361578      99.9336
     0.361669      95.7820
     0.361759      71.8188
     0.361850      121.335
     0.361940      183.090
     0.362031      67.0645
     0.362121      123.508
     0.362212      356.354
     0.362302      224.169
     0.362393      64.9294
     0.362483      287.478
     0.362574      256.505
     0.362665      95.7144
     0.362755      17.2067
     0.362846      10.6675
     0.362937      14.7732
     0.363027      15.9437
     0.363118      10.6724
     0.363209      21.0492
     0.363300      110.562
     0.363391      14.2866
     0.363481      359.313
     0.363572      323.388
     0.363663      201.950
     0.363754      126.281
     0.363845      243.432
     0.363936      168.109
     0.364027      308.182
     0.364118      39.7228
     0.364209      1876.77
     0.364300      117.229
     0.364391      153.205
     0.364482      26.1633
     0.364573      145.121
     0.364665      40.1663
     0.364756      80.0211
     0.364847      103.726
     0.364938      307.927
     0.365029      68.2810
     0.365121      85.1515
     0.365212      93.7518
     0.365303      10.4068
     0.365395      13.6702
     0.365486      253.929
     0.365577      48.0735
     0.365669      215.256
     0.365760      42.1333
     0.365852      114.138
     0.365943      1128.92
     0.366034      158.400
     0.366126      236.953
     0.366218      54.7897
     0.366309      422.292
     0.366401      60.3227
     0.366492      14.1129
     0.366584      30.2915
     0.366676      93.2307
     0.366767      78.8451
     0.366859      102.982
     0.366951      171.285
     0.367042      187.600
     0.367134      180.622
     0.367226      126.132
     0.367318      112.561
     0.367409      272.527
     0.367501      197.236
     0.367593      416.399
     0.367685      20.0845
     0.367777      92.7297
     0.367869      242.489
     0.367961      247.631
     0.368053      179.422
     0.368145      42.4243
     0.368237      312.844
     0.368329      34.4535
     0.368421      8.43179
     0.368513      38.3777
     0.368605      9.50461
     0.368698      11.6757
     0.368790      61.7441
     0.368882      58.3292
     0.368974      31.5700
     0.369066      553.153
     0.369159      474.968
     0.369251      278.589
     0.369343      129.529
     0.369436      595.035
     0.369528      100.968
     0.369620      47.3139
     0.369713      44.5189
     0.369805      248.378
     0.369898      73.1201
     0.369990      92.1068
     0.370083      420.867
     0.370175      29.0875
     0.370268      18.4110
     0.370360      569.009
     0.370453      140.167
     0.370545      14.7331
     0.370638      435.738
     0.370731      172.228
     0.370823      15.4966
     0.370916      17.6365
     0.371009      62.5593
     0.371102      71.4029
     0.371194      154.158
     0.371287      49.4510
     0.371380      13.0605
     0.371473      30.7613
     0.371566      27.6890
     0.371659      36.6534
     0.371751      50.5345
     0.371844      461.915
     0.371937      3190.79
     0.372030      255.789
     0.372123      252.358
     0.372216      583.629
     0.372309      16.4732
     0.372403      63.2998
     0.372496      211.943
     0.372589      39.1255
     0.372682      184.131
     0.372775      957.784
     0.372868      30.5645
     0.372961      1400.12
     0.373055      249.963
     0.373148      42.3234
     0.373241      20.4299
     0.373335      250.712
     0.373428      38.9235
     0.373521      39.4173
     0.373615      23.5136
     0.373708      244.057
     0.373801      899.683
     0.373895      65.2045
     0.373988      28.4138
     0.374082      643.990
     0.374175      38.1833
     0.374269      531.453
     0.374363      25.8738
     0.374456      40.5028
     0.374550      119.932
     0.374643      77.8698
     0.374737      51.0731
     0.374831      16.5763
     0.374924      113.318
     0.375018      107.463
     0.375112      265.382
     0.375206      13.0857
     0.375300      216.020
     0.375393      279.751
     0.375487      240.963
     0.375581      61.5369
     0.375675      81.1104
     0.375769      171.628
     0.375863      430.841
     0.375957      378.455
     0.376051      34.9213
     0.376145      242.140
     0.376239      66.7052
     0.376333      520.145
     0.376427      33.9816
     0.376521      1745.69
     0.376615      696.606
     0.376709      31.6105
     0.376804      102.108
     0.376898      11.6315
     0.376992      366.327
     0.377086      330.225
     0.377180      1706.45
     0.377275      89.7668
     0.377369      39.6730
     0.377463      33.5298
     0.377558      30.2237
     0.377652      111.609
     0.377747      49.9348
     0.377841      13.4614
     0.377935      20.2544
     0.378030      22.2507
     0.378124      751.636
     0.378219      11.2636
     0.378314      173.566
     0.378408      29.9448
     0.378503      62.1512
     0.378597      230.552
     0.378692      33.6814
     0.378787      56.1722
     0.378881      927.193
     0.378976      82.6123
     0.379071      524.215
     0.379166      82.3443
     0.379260      253.592
     0.379355      60.2532
     0.379450      100.741
     0.379545      104.064
     0.379640      163.043
     0.379735      116.883
     0.379830      174.580
     0.379925      88.0065
     0.380020      91.1144
     0.380115      201.462
     0.380210      50.6659
     0.380305      2564.10
     0.380400      174.142
     0.380495      60.8195
     0.380590      57.7327
     0.380685      26.6877
     0.380780      87.4220
     0.380875      74.8558
     0.380971      380.503
     0.381066      117.844
     0.381161      13.4163
     0.381257      59.7799
     0.381352      211.246
     0.381447      7.51357
     0.381543      94.5906
     0.381638      44.2897
     0.381733      86.6747
     0.381829      311.689
     0.381924      73.3795
     0.382020      45.7826
     0.382115      291.356
     0.382211      122.391
     0.382306      251.476
     0.382402      45.4633
     0.382497      298.189
     0.382593      201.099
     0.382689      204.681
     0.382784      101.054
     0.382880      3993.08
     0.382976      105.881
     0.383072      1497.48
     0.383167      130.981
     0.383263      79.0706
     0.383359      22.3115
     0.383455      185.738
     0.383551      105.006
     0.383647      555.999
     0.383742      429.212
     0.383838      67.6953
     0.383934      1955.02
     0.384030      90.2289
     0.384126      130.419
     0.384222      107.048
     0.384318      161.638
     0.384414      16.9006
     0.384511      218.079
     0.384607      19.8943
     0.384703      145.691
     0.384799      28.3948
     0.384895      26.1214
     0.384991      80.2422
     0.385088      1179.59
     0.385184      359.539
     0.385280      18.5308
     0.385377      52.8071
     0.385473      206.855
     0.385569      40.7008
     0.385666      179.353
     0.385762      34.8877
     0.385859      85.6042
     0.385955      163.916
     0.386052      11.5770
     0.386148      87.4746
     0.386245      166.182
     0.386341      144.221
     0.386438      41.9788
     0.386534      16.9418
     0.386631      34.2991
     0.386728      63.5050
     0.386824      472.635
     0.386921      109.241
     0.387018      26.0131
     0.387114      25.0238
     0.387211      60.3846
     0.387308      565.972
     0.387405      1736.20
     0.387502      996.829
     0.387599      64.5686
     0.387696      18.2320
     0.387792      73.2185
     0.387889      120.039
     0.387986      385.054
     0.388083      26.7008
     0.388180      41.3456
     0.388277      26.3720
     0.388375      24.4212
     0.388472      126.649
     0.388569      88.7189
     0.388666      828.815
     0.388763      34.8508
     0.388860      18.6878
     0.388957      52.2354
     0.389055      16.7940
     0.389152      295.880
     0.389249      81.0591
     0.389347      92.8150
     0.389444      47.0761
     0.389541      510.830
     0.389639      13.6526
     0.389736      16.3269
     0.389833      229.495
     0.389931      23.9473
     0.390028      107.744
     0.390126      147.074
     0.390223      20.7947
     0.390321      177.647
     0.390419      61.9466
     0.390516      42.7843
     0.390614      19.1874
     0.390711      40.9978
     0.390809      18.5279
     0.390907      87.6987
     0.391005      27.0276
     0.391102      68.4787
     0.391200      625.760
     0.391298      70.8727
     0.391396      108.375
     0.391494      136.548
     0.391591      402.132
     0.391689      959.065
     0.391787      96.0418
     0.391885      633.878
     0.391983      107.048
     0.392081      60.9826
     0.392179      61.0579
     0.392277      29.3471
     0.392375      368.352
     0.392473      1082.38
     0.392572      791.169
     0.392670      38.8943
     0.392768      74.3585
     0.392866      696.804
     0.392964      991.270
     0.393063      38.1936
     0.393161      82.1166
     0.393259      773.109
     0.393357      96.0240
     0.393456      49.0207
     0.393554      37.7317
     0.393652      46.7186
     0.393751      54.7474
     0.393849      131.318
     0.393948      39.3099
     0.394046      34.1702
     0.394145      22.4587
     0.394243      142.747
     0.394342      187.833
     0.394440      218.777
     0.394539      167.924
     0.394638      1338.60
     0.394736      374.262
     0.394835      1331.47
     0.394934      836.481
     0.395032      2295.25
     0.395131      122.484
     0.395230      318.318
     0.395329      83.8440
     0.395428      47.3052
     0.395527      125.560
     0.395625      480.697
     0.395724      42.8410
     0.395823      44.7745
     0.395922      312.526
     0.396021      53.0659
     0.396120      93.2749
     0.396219      136.909
     0.396318      44.5585
     0.396417      52.9787
     0.396516      48.1600
     0.396616      15.8156
     0.396715      988.725
     0.396814      184.079
     0.396913      80.8398
     0.397012      33.4282
     0.397112      16.5915
     0.397211      475.706
     0.397310      394.568
     0.397409      194.997
     0.397509      71.8790
     0.397608      72.0035
     0.397708      13.8081
     0.397807      21.3838
     0.397907      328.528
     0.398006      219.271
     0.398106      122.262
     0.398205      115.429
     0.398305      58.4634
     0.398404      41.0735
     0.398504      102.865
     0.398603      32.6534
     0.398703      162.345
     0.398803      158.889
     0.398902      102.951
     0.399002      389.224
     0.399102      158.346
     0.399202      294.977
     0.399301      90.0867
     0.399401      87.8778
     0.399501      1095.17
     0.399601      90.1156
     0.399701      92.6377
     0.399801      89.8166
     0.399901      131.085
     0.400001      100.732
     0.400101      238.739
     0.400201      206.674
     0.400301      79.0413
     0.400401      36.3567
     0.400501      231.480
     0.400601      85.2545
     0.400701      77.3976
     0.400801      580.730
     0.400902      349.226
     0.401002      102.981
     0.401102      55.3794
     0.401202      1459.54
     0.401303      160.537
     0.401403      533.841
     0.401503      211.325
     0.401604      32.9374
     0.401704      115.098
     0.401805      239.086
     0.401905      3092.47
     0.402006      267.063
     0.402106      58.1374
     0.402207      394.567
     0.402307      132.310
     0.402408      46.7203
     0.402508      350.846
     0.402609      170.504
     0.402710      617.316
     0.402810      49.3599
     0.402911      70.7572
     0.403012      419.849
     0.403112      2031.21
     0.403213      326.229
     0.403314      45.3720
     0.403415      607.890
     0.403516      218.210
     0.403617      2800.35
     0.403717      48.6006
     0.403818      75.2699
     0.403919      65.9434
     0.404020      77.5251
     0.404121      109.836
     0.404222      41.2120
     0.404323      1662.73
     0.404424      835.594
     0.404526      118.412
     0.404627      99.8058
     0.404728      40.5583
     0.404829      196.939
     0.404930      51.0123
     0.405032      254.643
     0.405133      299.166
     0.405234      63.3202
     0.405335      2002.07
     0.405437      120.147
     0.405538      44.7764
     0.405639      44.3124
     0.405741      38.9317
     0.405842      37.0954
     0.405944      446.674
     0.406045      20.5411
     0.406147      25.8579
     0.406248      13.3183
     0.406350      488.940
     0.406451      160.193
     0.406553      53.5022
     0.406655      24.3320
     0.406756      228.999
     0.406858      19.0095
     0.406960      414.063
     0.407061      202.196
     0.407163      2130.42
     0.407265      541.063
     0.407367      69.0319
     0.407469      19.6819
     0.407571      321.299
     0.407672      369.009
     0.407774      17.5294
     0.407876      69.3833
     0.407978      410.245
     0.408080      1078.90
     0.408182      263.841
     0.408284      250.569
     0.408386      359.661
     0.408489      378.987
     0.408591      232.271
     0.408693      1145.57
     0.408795      11.2593
     0.408897      536.554
     0.408999      17.1308
     0.409102      56.3673
     0.409204      68.0846
     0.409306      46.4869
     0.409409      151.351
     0.409511      1072.03
     0.409613      168.752
     0.409716      275.404
     0.409818      926.384
     0.409921      259.228
     0.410023      2013.93
     0.410126      76.6508
     0.410228      131.580
     0.410331      241.460
     0.410433      2008.51
     0.410536      110.820
     0.410638      85.1390
     0.410741      169.322
     0.410844      267.527
     0.410947      119.456
     0.411049      180.021
     0.411152      26.4611
     0.411255      2097.46
     0.411358      41.4961
     0.411460      11.0649
     0.411563      443.829
     0.411666      614.992
     0.411769      15.5908
     0.411872      66.4573
     0.411975      26.1222
     0.412078      22.1874
     0.412181      22.0750
     0.412284      65.2523
     0.412387      209.091
     0.412490      37.9218
     0.412593      46.3589
     0.412697      328.316
     0.412800      87.5875
     0.412903      165.641
     0.413006      103.532
     0.413109      775.188
     0.413213      4481.34
     0.413316      229.524
     0.413419      978.171
     0.413523      94.9741
     0.413626      293.127
     0.413729      15.6187
     0.413833      100.775
     0.413936      53.2160
     0.414040      147.550
     0.414143      41.3928
     0.414247      330.216
     0.414350      112.744
     0.414454      35.5858
     0.414558      20.2971
     0.414661      16.2792
     0.414765      42.8183
     0.414869      118.832
     0.414972      250.975
     0.415076      28.9430
     0.415180      24.4910
     0.415284      15.3037
     0.415387      27.0822
     0.415491      77.5538
     0.415595      344.987
     0.415699      278.127
     0.415803      728.851
     0.415907      4703.51
     0.416011      68.0550
     0.416115      27.7616
     0.416219      285.835
     0.416323      124.686
     0.416427      940.846
     0.416531      783.139
     0.416635      25.1062
     0.416739      60.5382
     0.416844      140.700
     0.416948      69.9159
     0.417052      1047.88
     0.417156      55.1221
     0.417261      35.0544
     0.417365      94.9788
     0.417469      29.4174
     0.417574      23.3403
     0.417678      37.4345
     0.417783      203.955
     0.417887      482.366
     0.417991      468.635
     0.418096      34.3665
     0.418200      502.987
     0.418305      42.1841
     0.418410      67.1424
     0.418514      72.7489
     0.418619      20.9923
     0.418723      29.7918
     0.418828      24.1248
     0.418933      114.376
     0.419038      1118.75
     0.419142      858.417
     0.419247      165.615
     0.419352      229.056
     0.419457      287.320
     0.419562      70.1566
     0.419667      22.6431
     0.419771      96.9930
     0.419876      4347.10
     0.419981      107.836
     0.420086      5031.70
     0.420191      375.157
     0.420296      117.443
     0.420402      182.852
     0.420507      43.2678
     0.420612      20.5447
     0.420717      41.8412
     0.420822      105.937
     0.420927      782.991
     0.421032      612.764
     0.421138      2918.36
     0.421243      20.5482
     0.421348      355.531
     0.421454      222.363
     0.421559      79.2538
     0.421664      75.5169
     0.421770      158.212
     0.421875      170.465
     0.421981      103.023
     0.422086      47.2796
     0.422192      20.4932
     0.422297      266.162
     0.422403      113.615
     0.422509      27.1399
     0.422614      132.606
     0.422720      880.440
     0.422825      949.937
     0.422931      471.858
     0.423037      400.506
     0.423143      41.0222
     0.423248      15.8028
     0.423354      36.1442
     0.423460      77.0117
     0.423566      2363.63
     0.423672      1056.78
     0.423778      229.931
     0.423884      46.3233
     0.423990      20.8511
     0.424096      153.847
     0.424202      30.0296
     0.424308      83.8618
     0.424414      40.3136
     0.424520      44.6567
     0.424626      23.5669
     0.424732      86.4152
     0.424838      221.919
     0.424945      52.5541
     0.425051      2286.55
     0.425157      323.618
     0.425263      11.0632
     0.425370      141.340
     0.425476      103.929
     0.425582      399.922
     0.425689      23.5871
     0.425795      1215.48
     0.425902      2222.09
     0.426008      146.246
     0.426115      67.4415
     0.426221      46.4141
     0.426328      34.2244
     0.426434      52.5770
     0.426541      31.0668
     0.426648      1843.11
     0.426754      59.8780
     0.426861      35.4632
     0.426968      121.229
     0.427074      76.2455
     0.427181      2712.79
     0.427288      594.898
     0.427395      127.699
     0.427502      181.732
     0.427609      36.3141
     0.427715      6935.11
     0.427822      289.720
     0.427929      51.0999
     0.428036      257.151
     0.428143      313.051
     0.428250      1164.82
     0.428357      156.737
     0.428464      51.7474
     0.428572      117.068
     0.428679      78.9581
     0.428786      48.3617
     0.428893      242.100
     0.429000      99.4274
     0.429108      19.0908
     0.429215      233.862
     0.429322      15.4830
     0.429430      70.5061
     0.429537      88.1682
     0.429644      11.3698
     0.429752      206.791
     0.429859      32.9257
     0.429967      1318.43
     0.430074      255.157
     0.430182      19.6062
     0.430289      34.6057
     0.430397      70.2826
     0.430504      85.3454
     0.430612      56.3621
     0.430720      436.490
     0.430827      239.399
     0.430935      920.110
     0.431043      220.618
     0.431150      331.834
     0.431258      2575.69
     0.431366      132.436
     0.431474      780.227
     0.431582      245.573
     0.431690      33.0991
     0.431798      257.605
     0.431906      40.7738
     0.432013      317.700
     0.432121      70.8730
     0.432230      20.6271
     0.432338      15.8261
     0.432446      24.6959
     0.432554      154.222
     0.432662      79.3780
     0.432770      88.4262
     0.432878      638.788
     0.432986      93.3176
     0.433095      1800.20
     0.433203      355.383
     0.433311      1259.98
     0.433420      32.5448
     0.433528      525.249
     0.433636      15.7875
     0.433745      833.509
     0.433853      75.2687
     0.433962      28.3117
     0.434070      141.156
     0.434179      35.6234
     0.434287      446.715
     0.434396      293.248
     0.434504      507.271
     0.434613      431.381
     0.434722      69.4668
     0.434830      5208.03
     0.434939      434.505
     0.435048      76.6613
     0.435157      70.9564
     0.435265      660.094
     0.435374      542.809
     0.435483      117.598
     0.435592      88.6694
     0.435701      55.6243
     0.435810      285.451
     0.435919      191.148
     0.436028      80.7846
     0.436137      48.0229
     0.436246      416.551
     0.436355      86.5744
     0.436464      24.6823
     0.436573      551.106
     0.436682      83.5559
     0.436791      782.026
     0.436900      135.512
     0.437010      460.290
     0.437119      3060.17
     0.437228      48.4124
     0.437338      64.0651
     0.437447      1836.35
     0.437556      620.173
     0.437666      41.4366
     0.437775      672.681
     0.437884      42.2097
     0.437994      1156.53
     0.438103      113.477
     0.438213      604.852
     0.438323      72.3112
     0.438432      98.7831
     0.438542      616.559
     0.438651      39.4703
     0.438761      144.872
     0.438871      29.4078
     0.438980      21.2342
     0.439090      1167.33
     0.439200      35.3391
     0.439310      299.269
     0.439420      114.779
     0.439529      42.0580
     0.439639      62.1105
     0.439749      125.887
     0.439859      39.1423
     0.439969      881.768
     0.440079      1898.10
     0.440189      551.336
     0.440299      1005.65
     0.440409      45.6336
     0.440519      74.6198
     0.440629      42.2869
     0.440740      29.4717
     0.440850      1914.39
     0.440960      75.7941
     0.441070      22.7222
     0.441181      14.9832
     0.441291      280.085
     0.441401      301.571
     0.441512      50.0504
     0.441622      47.8969
     0.441732      118.140
     0.441843      21.9559
     0.441953      15.6939
     0.442064      130.999
     0.442174      128.108
     0.442285      37.1144
     0.442395      133.232
     0.442506      91.9544
     0.442617      3291.14
     0.442727      39.8271
     0.442838      78.7978
     0.442949      71.3590
     0.443059      2331.20
     0.443170      103.663
     0.443281      295.004
     0.443392      672.184
     0.443503      62.8717
     0.443613      82.8412
     0.443724      43.9760
     0.443835      178.418
     0.443946      581.142
     0.444057      561.281
     0.444168      108.009
     0.444279      52.2362
     0.444390      153.037
     0.444501      181.277
     0.444613      683.878
     0.444724      47.4685
     0.444835      669.950
     0.444946      172.033
     0.445057      96.4995
     0.445169      39.7552
     0.445280      561.378
     0.445391      25.6267
     0.445503      56.6901
     0.445614      55.6356
     0.445725      44.4366
     0.445837      648.866
     0.445948      55.7619
     0.446060      82.1119
     0.446171      637.289
     0.446283      11.9907
     0.446394      115.202
     0.446506      104.716
     0.446618      36.4563
     0.446729      9.11236
     0.446841      31.3615
     0.446953      219.017
     0.447064      61.7095
     0.447176      71.5909
     0.447288      40.1386
     0.447400      57.6155
     0.447512      1919.84
     0.447623      27.6114
     0.447735      28.4317
     0.447847      209.521
     0.447959      96.8409
     0.448071      291.397
     0.448183      3714.09
     0.448295      312.837
     0.448407      44.9590
     0.448519      63.5192
     0.448632      270.181
     0.448744      864.661
     0.448856      311.040
     0.448968      199.975
     0.449080      232.794
     0.449193      73.0223
     0.449305      5134.84
     0.449417      80.9174
     0.449530      40.3922
     0.449642      32.6003
     0.449754      60.8742
     0.449867      620.626
     0.449979      411.191
     0.450092      24.3005
     0.450204      7.22284
     0.450317      143.246
     0.450429      15.5458
     0.450542      159.263
     0.450655      102.625
     0.450767      61.2194
     0.450880      18.6831
     0.450993      56.7349
     0.451106      1392.14
     0.451218      32.8401
     0.451331      339.918
     0.451444      30.2672
     0.451557      1148.89
     0.451670      24.1635
     0.451783      31.2886
     0.451896      265.532
     0.452009      27.6101
     0.452122      881.818
     0.452235      324.418
     0.452348      12.4625
     0.452461      87.2754
     0.452574      27.1354
     0.452687      24.5305
     0.452800      48.9762
     0.452913      26.9111
     0.453027      446.364
     0.453140      36.1351
     0.453253      164.743
     0.453366      217.505
     0.453480      390.798
     0.453593      147.437
     0.453707      126.157
     0.453820      45.2610
     0.453933      13.1850
     0.454047      423.334
     0.454160      68.8721
     0.454274      13.7349
     0.454388      60.8139
     0.454501      4951.06
     0.454615      367.957
     0.454728      151.913
     0.454842      21.8887
     0.454956      20.9946
     0.455070      11.0499
     0.455183      147.797
     0.455297      19.6691
     0.455411      21.3686
     0.455525      329.686
     0.455639      295.161
     0.455753      8.03707
     0.455867      104.572
     0.455981      32.3286
     0.456095      349.551
     0.456209      77.6416
     0.456323      445.390
     0.456437      314.484
     0.456551      35.3768
     0.456665      171.539
     0.456779      383.054
     0.456893      102.561
     0.457007      57.2232
     0.457122      689.643
     0.457236      40.7658
     0.457350      88.0268
     0.457465      25.7125
     0.457579      51.8812
     0.457693      31.5599
     0.457808      173.474
     0.457922      3700.26
     0.458037      177.379
     0.458151      136.141
     0.458266      16.8549
     0.458380      42.7348
     0.458495      36.4242
     0.458610      29.7505
     0.458724      14.0747
     0.458839      512.301
     0.458954      3574.35
     0.459068      34.6328
     0.459183      21.3989
     0.459298      323.998
     0.459413      43.7582
     0.459528      1132.22
     0.459643      251.612
     0.459757      8.07448
     0.459872      547.060
     0.459987      44.7808
     0.460102      23.5906
     0.460217      12.6980
     0.460332      176.645
     0.460447      13.5272
     0.460563      15.1308
     0.460678      43.6078
     0.460793      199.523
     0.460908      6004.13
     0.461023      244.958
     0.461139      133.521
     0.461254      62.5480
     0.461369      227.998
     0.461485      318.934
     0.461600      43.5281
     0.461715      12.6941
     0.461831      12.2243
     0.461946      119.708
     0.462062      321.343
     0.462177      71.8387
     0.462293      33.9516
     0.462408      111.557
     0.462524      58.6042
     0.462640      12.6666
     0.462755      132.554
     0.462871      370.114
     0.462987      25.5447
     0.463102      34.0838
     0.463218      175.776
     0.463334      191.029
     0.463450      15.2185
     0.463566      11.2533
     0.463682      335.057
     0.463797      33.1647
     0.463913      189.769
     0.464029      77.6351
     0.464145      62.6263
     0.464261      14.1217
     0.464377      30.9947
     0.464494      45.8194
     0.464610      73.3767
     0.464726      269.075
     0.464842      22.1879
     0.464958      34.9936
     0.465074      254.088
     0.465191      259.081
     0.465307      23.6238
     0.465423      26.4802
     0.465540      101.051
     0.465656      63.4697
     0.465773      5347.19
     0.465889      66.2473
     0.466005      101.444
     0.466122      24.4256
     0.466238      52.3896
     0.466355      711.052
     0.466472      61.0184
     0.466588      176.873
     0.466705      608.296
     0.466822      535.493
     0.466938      236.321
     0.467055      541.273
     0.467172      7.25127
     0.467289      87.9817
     0.467405      3119.73
     0.467522      77.3770
     0.467639      510.748
     0.467756      23.6414
     0.467873      56.1458
     0.467990      96.8782
     0.468107      87.5788
     0.468224      57.9959
     0.468341      163.610
     0.468458      21.6326
     0.468575      538.001
     0.468692      11.2419
     0.468810      9.37473
     0.468927      269.537
     0.469044      254.854
     0.469161      377.882
     0.469279      9.91366
     0.469396      312.205
     0.469513      1047.03
     0.469631      36.5413
     0.469748      10.1428
     0.469865      72.9791
     0.469983      66.9869
     0.470100      78.3154
     0.470218      421.625
     0.470335      382.072
     0.470453      4133.78
     0.470571      266.961
     0.470688      44.7379
     0.470806      236.989
     0.470924      19.8115
     0.471041      39.8228
     0.471159      74.2875
     0.471277      477.397
     0.471395      22.3981
     0.471513      76.1649
     0.471630      33.6474
     0.471748      42.6247
     0.471866      59.9249
     0.471984      103.267
     0.472102      355.992
     0.472220      312.246
     0.472338      3845.89
     0.472456      71.7486
     0.472575      24.3108
     0.472693      3627.60
     0.472811      74.7232
     0.472929      423.987
     0.473047      74.9959
     0.473166      469.670
     0.473284      14.8294
     0.473402      17.4172
     0.473521      38.5676
     0.473639      1410.15
     0.473757      33.2269
     0.473876      16.2007
     0.473994      391.884
     0.474113      457.479
     0.474231      150.986
     0.474350      121.022
     0.474468      28.1305
     0.474587      91.9549
     0.474706      40.2929
     0.474824      36.3971
     0.474943      925.329
     0.475062      24.7896
     0.475181      174.139
     0.475299      379.537
     0.475418      9.55254
     0.475537      8.86387
     0.475656      48.2636
     0.475775      408.632
     0.475894      17.0461
     0.476013      35.6174
     0.476132      79.5915
     0.476251      44.5083
     0.476370      76.4329
     0.476489      6679.32
     0.476608      886.255
     0.476727      23.5735
     0.476846      71.5031
     0.476966      15.7019
     0.477085      48.5124
     0.477204      12.3650
     0.477323      73.9944
     0.477443      175.967
     0.477562      176.453
     0.477682      90.2596
     0.477801      1908.19
     0.477920      94.4354
     0.478040      67.4773
     0.478159      33.7799
     0.478279      38.1248
     0.478399      129.148
     0.478518      14.2504
     0.478638      129.809
     0.478757      171.307
     0.478877      284.434
     0.478997      616.734
     0.479117      24.0728
     0.479236      46.1465
     0.479356      110.932
     0.479476      4.96639
     0.479596      137.948
     0.479716      28.4044
     0.479836      18.1892
     0.479956      27.5855
     0.480076      46.9290
     0.480196      8.99130
     0.480316      45.9733
     0.480436      37.6084
     0.480556      4309.36
     0.480676      93.4950
     0.480796      2533.55
     0.480916      765.424
     0.481037      18.3985
     0.481157      20.1306
     0.481277      205.012
     0.481397      686.870
     0.481518      40.7201
     0.481638      26.7348
     0.481759      57.9606
     0.481879      148.255
     0.482000      103.141
     0.482120      801.156
     0.482241      1196.65
     0.482361      574.622
     0.482482      39.8393
     0.482602      43.9647
     0.482723      526.422
     0.482844      13.3028
     0.482964      61.5548
     0.483085      822.749
     0.483206      257.307
     0.483327      214.225
     0.483448      22.9390
     0.483568      13.5918
     0.483689      28.3612
     0.483810      29.7739
     0.483931      21.3597
     0.484052      1688.53
     0.484173      33.2207
     0.484294      15.5684
     0.484415      422.126
     0.484536      156.412
     0.484657      8.50535
     0.484779      2626.71
     0.484900      372.672
     0.485021      381.693
     0.485142      13.6031
     0.485264      189.832
     0.485385      11.7837
     0.485506      17.1669
     0.485628      16.5402
     0.485749      54.3270
     0.485871      100.619
     0.485992      25.0403
     0.486113      344.664
     0.486235      49.5914
     0.486357      1004.68
     0.486478      60.2769
     0.486600      2121.47
     0.486721      53.2781
     0.486843      245.328
     0.486965      6.98374
     0.487087      151.465
     0.487208      85.3826
     0.487330      832.272
     0.487452      317.057
     0.487574      71.3944
     0.487696      95.1503
     0.487818      1390.91
     0.487940      4034.09
     0.488062      176.214
     0.488184      120.188
     0.488306      13.9378
     0.488428      13.4800
     0.488550      23.4801
     0.488672      24.5539
     0.488794      69.6489
     0.488916      802.350
     0.489039      73.8644
     0.489161      42.5900
     0.489283      116.796
     0.489405      69.9351
     0.489528      3191.53
     0.489650      6.78646
     0.489773      13.7232
     0.489895      176.720
     0.490017      11.6515
     0.490140      82.1281
     0.490263      359.255
     0.490385      9.55235
     0.490508      353.402
     0.490630      7.87729
     0.490753      60.1989
     0.490876      29.6785
     0.490998      275.842
     0.491121      241.504
     0.491244      149.747
     0.491367      24.7392
     0.491490      33.9004
     0.491612      13.6069
     0.491735      23.2180
     0.491858      13.4135
     0.491981      1271.24
     0.492104      288.412
     0.492227      20.7283
     0.492350      41.9460
     0.492473      84.7086
     0.492597      86.1989
     0.492720      226.751
     0.492843      72.8927
     0.492966      70.1725
     0.493089      16.4624
     0.493213      12.4269
     0.493336      341.958
     0.493459      8.06907
     0.493583      12.3191
     0.493706      146.948
     0.493829      283.201
     0.493953      720.089
     0.494076      17.8266
     0.494200      23.9818
     0.494323      500.955
     0.494447      12.4072
     0.494571      1262.47
     0.494694      202.217
     0.494818      50.6007
     0.494942      23.9509
     0.495065      158.226
     0.495189      11.4450
     0.495313      54.1494
     0.495437      87.8758
     0.495561      33.2784
     0.495685      98.2214
     0.495808      50.4436
     0.495932      32.3626
     0.496056      83.1830
     0.496180      98.8459
     0.496304      87.3221
     0.496428      118.128
     0.496553      3044.05
     0.496677      18.5935
     0.496801      19.4973
     0.496925      83.1722
     0.497049      114.197
     0.497174      221.772
     0.497298      53.3339
     0.497422      8.71370
     0.497547      37.1631
     0.497671      15.1063
     0.497795      23.2421
     0.497920      10.6686
     0.498044      166.541
     0.498169      11.3865
     0.498293      208.082
     0.498418      8.85128
     0.498543      427.288
     0.498667      28.6759
     0.498792      21.8701
     0.498917      168.136
     0.499041      17.1334
     0.499166      29.7303
     0.499291      28.0767
     0.499416      154.938
     0.499540      29.1534
     0.499665      22.9167
     0.499790      35.7922
     0.499915      23.1631
     0.500040      65.5387
     0.500165      1804.91
     0.500290      34.1319
     0.500415      230.021
     0.500540      21.5380
     0.500666      19.6489
     0.500791      23.4763
     0.500916      805.958
     0.501041      73.7258
     0.501166      33.4919
     0.501292      14.7862
     0.501417      33.8286
     0.501542      92.7636
     0.501668      1772.87
     0.501793      206.867
     0.501919      258.216
     0.502044      176.074
     0.502170      145.791
     0.502295      26.7032
     0.502421      46.3480
     0.502546      7.94330
     0.502672      16.2001
     0.502798      78.0324
     0.502923      659.218
     0.503049      152.024
     0.503175      23.8096
     0.503301      6.40105
     0.503426      19.5259
     0.503552      27.2912
     0.503678      32.5854
     0.503804      37.2348
     0.503930      1224.70
     0.504056      156.573
     0.504182      50.1531
     0.504308      44.8988
     0.504434      2529.20
     0.504560      291.884
     0.504686      662.727
     0.504813      15.8152
     0.504939      904.507
     0.505065      643.568
     0.505191      272.315
     0.505318      30.3794
     0.505444      64.6325
     0.505570      329.415
     0.505697      26.0448
     0.505823      327.465
     0.505950      387.945
     0.506076      47.4072
     0.506203      817.023
     0.506329      157.455
     0.506456      1570.07
     0.506582      282.672
     0.506709      127.906
     0.506836      1770.41
     0.506962      29.0580
     0.507089      20.9314
     0.507216      17.2205
     0.507343      22.3647
     0.507470      25.3655
     0.507596      30.1115
     0.507723      15.9688
     0.507850      23.4098
     0.507977      30.9079
     0.508104      145.747
     0.508231      39.2491
     0.508358      13.3214
     0.508485      134.021
     0.508613      37.2482
     0.508740      39.3392
     0.508867      25.5455
     0.508994      638.848
     0.509121      129.997
     0.509249      21.7531
     0.509376      85.3082
     0.509503      104.425
     0.509631      628.218
     0.509758      115.886
     0.509885      81.9760
     0.510013      724.427
     0.510140      156.074
     0.510268      17.1987
     0.510396      24.2310
     0.510523      22.7387
     0.510651      14.6773
     0.510778      12.5412
     0.510906      14.9373
     0.511034      65.3125
     0.511162      155.422
     0.511289      47.3870
     0.511417      21.9867
     0.511545      1078.15
     0.511673      135.519
     0.511801      96.1714
     0.511929      41.9736
     0.512057      25.1774
     0.512185      73.4273
     0.512313      98.2451
     0.512441      30.8905
     0.512569      640.998
     0.512697      24.0251
     0.512825      250.870
     0.512954      52.9311
     0.513082      79.9878
     0.513210      38.0489
     0.513338      60.2970
     0.513467      467.542
     0.513595      54.1500
     0.513723      160.146
     0.513852      36.5208
     0.513980      26.1104
     0.514109      315.317
     0.514237      780.243
     0.514366      700.279
     0.514495      502.396
     0.514623      47.8175
     0.514752      32.3954
     0.514881      92.6948
     0.515009      33.8707
     0.515138      1048.73
     0.515267      18.3202
     0.515396      784.529
     0.515524      15.9923
     0.515653      6.88070
     0.515782      29.4645
     0.515911      2759.20
     0.516040      276.441
     0.516169      603.084
     0.516298      823.796
     0.516427      55.5790
     0.516556      181.492
     0.516686      84.9097
     0.516815      99.3058
     0.516944      112.855
     0.517073      41.7012
     0.517202      27.5209
     0.517332      171.126
     0.517461      167.042
     0.517590      503.683
     0.517720      1214.14
     0.517849      64.6818
     0.517979      23.2655
     0.518108      41.4123
     0.518238      74.2292
     0.518367      123.704
     0.518497      131.426
     0.518627      99.4890
     0.518756      791.629
     0.518886      36.7697
     0.519016      39.4636
     0.519145      97.8474
     0.519275      27.5226
     0.519405      359.268
     0.519535      693.545
     0.519665      32.9753
     0.519795      9.48845
     0.519925      1538.78
     0.520055      6.20360
     0.520185      42.5828
     0.520315      9.86932
     0.520445      49.5330
     0.520575      144.185
     0.520705      129.828
     0.520835      43.0839
     0.520965      320.109
     0.521096      1719.05
     0.521226      25.9117
     0.521356      564.911
     0.521486      55.8608
     0.521617      258.126
     0.521747      38.2525
     0.521878      980.060
     0.522008      76.9322
     0.522139      361.716
     0.522269      32.0576
     0.522400      13.3691
     0.522530      26.2887
     0.522661      34.5203
     0.522792      146.846
     0.522922      54.0454
     0.523053      2992.06
     0.523184      969.922
     0.523315      103.251
     0.523445      78.2632
     0.523576      30.7421
     0.523707      30.7361
     0.523838      315.636
     0.523969      364.542
     0.524100      20.6844
     0.524231      24.1895
     0.524362      19.2679
     0.524493      24.7434
     0.524624      10.2528
     0.524756      439.288
     0.524887      16.7336
     0.525018      26.6056
     0.525149      85.3104
     0.525280      114.017
     0.525412      130.287
     0.525543      43.4379
     0.525675      21.1393
     0.525806      2127.95
     0.525937      63.8070
     0.526069      334.270
     0.526200      173.951
     0.526332      20.7623
     0.526464      65.7976
     0.526595      21.9215
     0.526727      1172.39
     0.526859      28.5944
     0.526990      72.9949
     0.527122      19.1784
     0.527254      226.549
     0.527386      405.209
     0.527517      14.5191
     0.527649      77.8341
     0.527781      167.462
     0.527913      18.4435
     0.528045      253.006
     0.528177      81.7213
     0.528309      32.5304
     0.528441      13.0774
     0.528573      17.3944
     0.528705      37.3832
     0.528838      2.88535
     0.528970      40.3867
     0.529102      13.5787
     0.529234      112.236
     0.529367      24.0115
     0.529499      208.244
     0.529631      296.079
     0.529764      641.496
     0.529896      162.973
     0.530029      232.361
     0.530161      41.8342
     0.530294      128.232
     0.530426      18.9967
     0.530559      93.9308
     0.530692      167.840
     0.530824      53.9240
     0.530957      79.3690
     0.531090      155.738
     0.531223      2871.30
     0.531355      325.517
     0.531488      59.7111
     0.531621      12.5279
     0.531754      334.316
     0.531887      42.3821
     0.532020      72.5869
     0.532153      10.5061
     0.532286      55.1876
     0.532419      29.8363
     0.532552      154.470
     0.532685      846.193
     0.532818      14.9828
     0.532952      182.682
     0.533085      27.6201
     0.533218      15.4634
     0.533351      31.2275
     0.533485      6.72385
     0.533618      11.8295
     0.533751      26.8044
     0.533885      27.0203
     0.534018      55.5661
     0.534152      17.9179
     0.534285      112.213
     0.534419      2153.36
     0.534553      52.2602
     0.534686      76.8471
     0.534820      230.924
     0.534954      75.0166
     0.535087      220.990
     0.535221      85.6386
     0.535355      73.0795
     0.535489      90.9982
     0.535623      93.5378
     0.535757      25.5436
     0.535891      161.922
     0.536025      522.073
     0.536159      153.069
     0.536293      216.735
     0.536427      38.6777
     0.536561      27.9908
     0.536695      17.5140
     0.536829      15.1070
     0.536963      330.630
     0.537097      141.747
     0.537232      123.623
     0.537366      36.9346
     0.537500      449.376
     0.537635      194.350
     0.537769      21.7268
     0.537904      564.886
     0.538038      7.55188
     0.538173      27.7564
     0.538307      82.4403
     0.538442      87.8363
     0.538576      11.1984
     0.538711      746.153
     0.538846      96.8129
     0.538980      482.756
     0.539115      125.104
     0.539250      158.413
     0.539385      241.180
     0.539520      938.512
     0.539654      26.2611
     0.539789      124.394
     0.539924      852.583
     0.540059      59.6601
     0.540194      69.1232
     0.540329      115.216
     0.540464      13.7083
     0.540600      17.2651
     0.540735      1040.29
     0.540870      25.0537
     0.541005      144.649
     0.541140      757.448
     0.541276      27.2362
     0.541411      41.4225
     0.541546      384.074
     0.541682      1378.96
     0.541817      916.832
     0.541953      31.1870
     0.542088      106.430
     0.542224      81.4083
     0.542359      323.292
     0.542495      21.8303
     0.542630      204.711
     0.542766      18.3190
     0.542902      14.6170
     0.543037      34.2668
     0.543173      410.696
     0.543309      47.6468
     0.543445      227.269
     0.543581      103.621
     0.543717      62.5784
     0.543852      59.7361
     0.543988      119.838
     0.544124      151.024
     0.544260      174.532
     0.544397      60.6073
     0.544533      12.3417
     0.544669      126.758
     0.544805      24.6306
     0.544941      158.984
     0.545077      31.3464
     0.545214      1072.10
     0.545350      33.9005
     0.545486      112.171
     0.545623      28.4791
     0.545759      192.629
     0.545896      44.8572
     0.546032      20.2096
     0.546169      75.3321
     0.546305      69.3109
     0.546442      465.185
     0.546578      19.1911
     0.546715      40.2073
     0.546852      20.5851
     0.546988      22.4836
     0.547125      209.245
     0.547262      10.6735
     0.547399      41.8990
     0.547535      103.121
     0.547672      11.2841
     0.547809      15.8817
     0.547946      58.7948
     0.548083      19.7773
     0.548220      29.8692
     0.548357      56.8256
     0.548494      33.9970
     0.548631      18.7504
     0.548769      36.2257
     0.548906      154.264
     0.549043      24.8992
     0.549180      108.053
     0.549318      818.889
     0.549455      257.983
     0.549592      1262.01
     0.549730      24.2754
     0.549867      3498.07
     0.550005      247.010
     0.550142      166.553
     0.550280      24.8646
     0.550417      685.741
     0.550555      182.090
     0.550692      207.058
     0.550830      155.459
     0.550968      1011.32
     0.551106      56.6855
     0.551243      17.5815
     0.551381      27.6438
     0.551519      613.796
     0.551657      12.9799
     0.551795      12.9679
     0.551933      127.787
     0.552071      14.4498
     0.552209      42.1661
     0.552347      19.0069
     0.552485      181.518
     0.552623      15.4865
     0.552761      114.921
     0.552899      27.8101
     0.553038      37.2250
     0.553176      12.6812
     0.553314      72.5969
     0.553452      31.8851
     0.553591      54.3046
     0.553729      150.618
     0.553868      2514.32
     0.554006      410.874
     0.554145      230.877
     0.554283      449.965
     0.554422      11.4368
     0.554560      97.3644
     0.554699      39.2829
     0.554838      1291.42
     0.554976      10.3420
     0.555115      131.643
     0.555254      123.271
     0.555393      207.881
     0.555532      74.3192
     0.555670      1085.05
     0.555809      2323.33
     0.555948      758.739
     0.556087      20.8155
     0.556226      17.6041
     0.556365      84.5854
     0.556504      35.4473
     0.556644      5.55470
     0.556783      114.651
     0.556922      17.4416
     0.557061      792.703
     0.557200      768.240
     0.557340      1455.10
     0.557479      17.3227
     0.557618      288.480
     0.557758      78.9310
     0.557897      749.441
     0.558037      126.616
     0.558176      62.2520
     0.558316      126.276
     0.558455      18.1732
     0.558595      42.9884
     0.558735      4437.65
     0.558874      114.359
     0.559014      31.0615
     0.559154      24.5778
     0.559294      176.166
     0.559433      351.740
     0.559573      1250.89
     0.559713      81.5202
     0.559853      31.5465
     0.559993      193.817
     0.560133      1882.90
     0.560273      96.0075
     0.560413      405.578
     0.560553      58.3656
     0.560693      1491.84
     0.560834      25.2384
     0.560974      959.901
     0.561114      508.153
     0.561254      583.726
     0.561395      30.4362
     0.561535      2033.21
     0.561675      45.4128
     0.561816      82.7545
     0.561956      130.100
     0.562097      43.8444
     0.562237      29.3088
     0.562378      34.3488
     0.562518      63.7175
     0.562659      32.2260
     0.562800      9.75211
     0.562940      19.9426
     0.563081      61.8243
     0.563222      51.7285
     0.563363      142.475
     0.563504      36.5758
     0.563644      52.9898
     0.563785      35.8718
     0.563926      803.874
     0.564067      66.4298
     0.564208      181.085
     0.564349      26.6026
     0.564490      247.153
     0.564632      379.478
     0.564773      47.8416
     0.564914      558.604
     0.565055      612.079
     0.565196      21.8481
     0.565338      96.8325
     0.565479      94.7563
     0.565620      44.1040
     0.565762      430.682
     0.565903      82.2606
     0.566045      39.1212
     0.566186      19.0772
     0.566328      133.184
     0.566469      1144.32
     0.566611      160.137
     0.566753      233.600
     0.566894      17.1887
     0.567036      20.8306
     0.567178      17.3736
     0.567320      105.201
     0.567461      180.249
     0.567603      12.4084
     0.567745      301.056
     0.567887      46.7672
     0.568029      13.3203
     0.568171      60.4274
     0.568313      18.1202
     0.568455      167.746
     0.568597      8.68256
     0.568739      43.1560
     0.568882      16.9371
     0.569024      92.8158
     0.569166      137.799
     0.569308      15.8551
     0.569451      22.0715
     0.569593      43.6975
     0.569736      12.9666
     0.569878      139.996
     0.570020      570.476
     0.570163      301.626
     0.570305      91.5090
     0.570448      27.1126
     0.570591      66.8582
     0.570733      763.243
     0.570876      65.3661
     0.571019      11.4295
     0.571161      38.4233
     0.571304      42.2837
     0.571447      14.1945
     0.571590      49.0043
     0.571733      114.578
     0.571876      48.0193
     0.572019      7034.02
     0.572162      52.5545
     0.572305      12.7082
     0.572448      291.352
     0.572591      993.807
     0.572734      77.2428
     0.572877      8.21615
     0.573021      27.6278
     0.573164      16.3244
     0.573307      116.339
     0.573450      15.1845
     0.573594      85.0377
     0.573737      7.12410
     0.573881      163.513
     0.574024      97.1312
     0.574168      570.725
     0.574311      24.7241
     0.574455      7.84430
     0.574598      20.7849
     0.574742      81.0801
     0.574886      1055.92
     0.575029      278.273
     0.575173      19.7169
     0.575317      1094.32
     0.575461      35.3365
     0.575605      21.3724
     0.575749      30.2415
     0.575892      33.4004
     0.576036      8475.49
     0.576180      82.5333
     0.576324      1242.84
     0.576469      20.6267
     0.576613      30.7186
     0.576757      743.708
     0.576901      45.7250
     0.577045      39.3183
     0.577189      234.433
     0.577334      397.741
     0.577478      27.9822
     0.577622      52.1277
     0.577767      115.654
     0.577911      43.6512
     0.578056      25.4029
     0.578200      132.895
     0.578345      29.5629
     0.578489      21.4095
     0.578634      26.2636
     0.578779      9.38478
     0.578923      534.708
     0.579068      15.3948
     0.579213      516.030
     0.579358      9.87984
     0.579503      9.52415
     0.579647      332.288
     0.579792      218.600
     0.579937      16.4779
     0.580082      1849.86
     0.580227      135.057
     0.580372      5076.72
     0.580517      88.6540
     0.580663      47.9869
     0.580808      105.380
     0.580953      15.6062
     0.581098      10.4487
     0.581243      350.899
     0.581389      21.0922
     0.581534      433.096
     0.581680      22.3507
     0.581825      81.7855
     0.581970      130.823
     0.582116      8.88770
     0.582261      98.2083
     0.582407      6.67911
     0.582553      70.7626
     0.582698      58.5670
     0.582844      76.4686
     0.582990      35.6521
     0.583135      124.829
     0.583281      333.067
     0.583427      167.053
     0.583573      16.4099
     0.583719      8.39888
     0.583865      60.1379
     0.584011      233.242
     0.584157      20.5577
     0.584303      17.8116
     0.584449      80.8867
     0.584595      97.1232
     0.584741      12.2454
     0.584887      13.4064
     0.585033      12.3228
     0.585180      90.0696
     0.585326      880.536
     0.585472      412.434
     0.585619      44.4906
     0.585765      20.6709
     0.585911      165.498
     0.586058      404.532
     0.586204      19.8938
     0.586351      485.532
     0.586498      16.6428
     0.586644      110.081
     0.586791      110.347
     0.586938      236.459
     0.587084      305.341
     0.587231      71.3641
     0.587378      91.2363
     0.587525      65.3963
     0.587672      49.2631
     0.587819      44.7556
     0.587965      57.2646
     0.588112      14.5674
     0.588260      335.795
     0.588407      52.2719
     0.588554      1194.69
     0.588701      169.792
     0.588848      646.364
     0.588995      1482.46
     0.589142      634.670
     0.589290      45.7740
     0.589437      47.0032
     0.589584      712.020
     0.589732      22.5046
     0.589879      31.4746
     0.590027      174.883
     0.590174      20.6724
     0.590322      59.2624
     0.590469      84.7033
     0.590617      376.808
     0.590765      16.0847
     0.590912      490.560
     0.591060      110.358
     0.591208      1327.60
     0.591356      35.2796
     0.591503      2170.80
     0.591651      193.001
     0.591799      22.5306
     0.591947      309.604
     0.592095      16.7495
     0.592243      108.972
     0.592391      53.5889
     0.592539      996.145
     0.592687      1027.52
     0.592836      583.472
     0.592984      400.643
     0.593132      18.4163
     0.593280      81.7092
     0.593429      143.367
     0.593577      140.504
     0.593726      466.693
     0.593874      2793.14
     0.594022      67.1066
     0.594171      85.1691
     0.594319      226.864
     0.594468      586.408
     0.594617      41.7948
     0.594765      6.82200
     0.594914      184.498
     0.595063      29.5428
     0.595211      9.15041
     0.595360      21.4309
     0.595509      93.4324
     0.595658      35.8333
     0.595807      51.1007
     0.595956      81.9652
     0.596105      47.2003
     0.596254      72.3385
     0.596403      42.8669
     0.596552      52.3017
     0.596701      19.2731
     0.596850      29.3268
     0.597000      153.277
     0.597149      75.0428
     0.597298      3671.44
     0.597447      2674.27
     0.597597      77.7872
     0.597746      44.0683
     0.597896      17.8071
     0.598045      28.4803
     0.598195      120.291
     0.598344      38.6413
     0.598494      27.9914
     0.598643      174.983
     0.598793      237.932
     0.598943      1323.71
     0.599092      1586.95
     0.599242      18.3640
     0.599392      3645.96
     0.599542      57.9204
     0.599692      166.543
     0.599842      166.668
     0.599992      33.8020
     0.600142      712.628
     0.600292      44.2326
     0.600442      278.657
     0.600592      312.125
     0.600742      1035.11
     0.600892      15.4212
     0.601042      822.312
     0.601193      114.699
     0.601343      74.8003
     0.601493      79.6384
     0.601644      20.7774
     0.601794      17.5155
     0.601945      44.8803
     0.602095      1152.85
     0.602246      35.8046
     0.602396      52.3666
     0.602547      256.833
     0.602697      34.7172
     0.602848      94.5560
     0.602999      558.886
     0.603149      2966.34
     0.603300      398.969
     0.603451      233.261
     0.603602      40.0900
     0.603753      3017.49
     0.603904      462.364
     0.604055      15.9883
     0.604206      149.291
     0.604357      1596.56
     0.604508      313.349
     0.604659      117.064
     0.604810      42.6987
     0.604961      2037.05
     0.605113      210.197
     0.605264      796.055
     0.605415      257.901
     0.605567      113.537
     0.605718      13.5169
     0.605869      716.926
     0.606021      38.9171
     0.606172      86.6479
     0.606324      13.8014
     0.606476      36.2812
     0.606627      79.7784
     0.606779      29.4517
     0.606930      211.355
     0.607082      34.1852
     0.607234      85.4389
     0.607386      84.2373
     0.607538      6.51377
     0.607690      244.684
     0.607841      528.871
     0.607993      337.596
     0.608145      31.8626
     0.608297      18.7642
     0.608450      51.3242
     0.608602      566.821
     0.608754      1421.76
     0.608906      32.4994
     0.609058      166.507
     0.609210      18.1843
     0.609363      48.9901
     0.609515      28.9587
     0.609668      46.0564
     0.609820      587.621
     0.609972      298.822
     0.610125      759.598
     0.610277      1578.50
     0.610430      673.857
     0.610583      507.793
     0.610735      432.097
     0.610888      78.6401
     0.611041      19.2931
     0.611193      21.6702
     0.611346      557.226
     0.611499      2891.84
     0.611652      192.930
     0.611805      13.9119
     0.611958      221.114
     0.612111      550.824
     0.612264      196.816
     0.612417      806.021
     0.612570      49.8576
     0.612723      118.143
     0.612876      147.313
     0.613029      84.1019
     0.613183      39.3636
     0.613336      150.398
     0.613489      27.7286
     0.613643      24.5447
     0.613796      153.071
     0.613950      20.8791
     0.614103      34.8741
     0.614257      24.7279
     0.614410      67.2055
     0.614564      374.690
     0.614717      80.0151
     0.614871      81.7079
     0.615025      152.917
     0.615179      3071.17
     0.615332      355.900
     0.615486      1177.72
     0.615640      496.465
     0.615794      43.1442
     0.615948      29.3817
     0.616102      490.816
     0.616256      145.864
     0.616410      3176.99
     0.616564      90.2166
     0.616718      51.2150
     0.616872      51.0515
     0.617027      4794.02
     0.617181      2264.27
     0.617335      556.373
     0.617490      30.2091
     0.617644      36.2799
     0.617798      897.414
     0.617953      93.8721
     0.618107      759.228
     0.618262      5356.26
     0.618416      331.529
     0.618571      42.4049
     0.618726      81.2688
     0.618880      1719.64
     0.619035      27.6755
     0.619190      1583.23
     0.619345      89.8930
     0.619499      31.8107
     0.619654      39.5634
     0.619809      1874.82
     0.619964      34.2077
     0.620119      90.0973
     0.620274      2535.29
     0.620429      1135.58
     0.620584      147.796
     0.620740      2841.00
     0.620895      183.065
     0.621050      20.3267
     0.621205      645.309
     0.621360      32.2814
     0.621516      172.057
     0.621671      176.903
     0.621827      31.2032
     0.621982      512.356
     0.622138      305.334
     0.622293      60.4029
     0.622449      3017.07
     0.622604      1058.69
     0.622760      32.6760
     0.622916      18.9120
     0.623071      93.7448
     0.623227      143.493
     0.623383      85.2084
     0.623539      1273.95
     0.623695      24.1333
     0.623851      68.4340
     0.624007      82.4934
     0.624163      402.485
     0.624319      546.763
     0.624475      64.9138
     0.624631      164.588
     0.624787      165.380
     0.624943      56.5083
     0.625099      116.466
     0.625256      40.4611
     0.625412      26.8807
     0.625568      28.2896
     0.625725      628.848
     0.625881      119.994
     0.626038      306.459
     0.626194      1478.76
     0.626351      12.7125
     0.626507      104.150
     0.626664      154.474
     0.626821      74.1564
     0.626977      128.781
     0.627134      388.529
     0.627291      71.1991
     0.627448      712.235
     0.627604      230.288
     0.627761      172.417
     0.627918      209.934
     0.628075      58.7287
     0.628232      39.6106
     0.628389      30.3403
     0.628546      224.004
     0.628704      210.298
     0.628861      165.458
     0.629018      111.284
     0.629175      671.351
     0.629333      811.149
     0.629490      91.3857
     0.629647      572.691
     0.629805      47.0805
     0.629962      97.4241
     0.630120      419.553
     0.630277      342.690
     0.630435      90.6520
     0.630592      64.1151
     0.630750      641.749
     0.630908      98.4756
     0.631065      392.985
     0.631223      104.837
     0.631381      44.4671
     0.631539      342.993
     0.631697      142.408
     0.631855      72.5089
     0.632013      18.1400
     0.632171      157.371
     0.632329      47.1740
     0.632487      122.292
     0.632645      692.005
     0.632803      1118.28
     0.632961      14.8251
     0.633119      88.8722
     0.633278      112.625
     0.633436      28.0563
     0.633594      75.7868
     0.633753      383.751
     0.633911      372.768
     0.634070      25.9981
     0.634228      3348.91
     0.634387      26.3951
     0.634545      173.264
     0.634704      24.9106
     0.634863      1072.89
     0.635021      22.4001
     0.635180      8.98833
     0.635339      28.9951
     0.635498      294.764
     0.635657      790.151
     0.635816      108.413
     0.635975      173.484
     0.636133      29.7292
     0.636293      117.390
     0.636452      193.366
     0.636611      14.3089
     0.636770      22.6156
     0.636929      607.615
     0.637088      26.6066
     0.637248      1233.31
     0.637407      12.8363
     0.637566      14.4326
     0.637726      1720.72
     0.637885      89.2548
     0.638045      90.7068
     0.638204      85.6450
     0.638364      45.9658
     0.638523      787.703
     0.638683      609.576
     0.638842      203.188
     0.639002      103.732
     0.639162      46.1321
     0.639322      59.2344
     0.639482      84.8717
     0.639641      127.076
     0.639801      47.5918
     0.639961      99.8214
     0.640121      147.805
     0.640281      85.3890
     0.640441      35.4992
     0.640602      949.556
     0.640762      225.243
     0.640922      185.300
     0.641082      48.1434
     0.641242      3207.71
     0.641403      733.524
     0.641563      3214.21
     0.641723      102.158
     0.641884      109.354
     0.642044      57.2452
     0.642205      134.322
     0.642365      84.1493
     0.642526      74.7921
     0.642687      39.2371
     0.642847      64.1758
     0.643008      28.9577
     0.643169      142.705
     0.643330      21.1723
     0.643490      33.8706
     0.643651      40.9421
     0.643812      564.383
     0.643973      229.658
     0.644134      101.789
     0.644295      13.7049
     0.644456      104.037
     0.644617      218.098
     0.644778      11.3531
     0.644940      217.674
     0.645101      87.8300
     0.645262      36.3352
     0.645423      5.45326
     0.645585      42.4028
     0.645746      4164.08
     0.645908      18.9681
     0.646069      59.7002
     0.646231      799.200
     0.646392      9.57653
     0.646554      29.6589
     0.646715      350.059
     0.646877      56.7573
     0.647039      29.4688
     0.647201      110.681
     0.647362      18.8318
     0.647524      112.065
     0.647686      16.6375
     0.647848      13.3986
     0.648010      30.5378
     0.648172      123.228
     0.648334      788.409
     0.648496      41.8041
     0.648658      16.4964
     0.648820      272.547
     0.648983      74.8539
     0.649145      1791.59
     0.649307      584.536
     0.649469      133.201
     0.649632      105.252
     0.649794      89.3154
     0.649957      134.403
     0.650119      288.205
     0.650282      231.071
     0.650444      46.3084
     0.650607      73.0881
     0.650770      533.886
     0.650932      527.261
     0.651095      151.957
     0.651258      1810.46
     0.651421      78.6351
     0.651583      33.9286
     0.651746      26.7237
     0.651909      28.8788
     0.652072      23.8284
     0.652235      329.615
     0.652398      25.0351
     0.652561      24.4511
     0.652725      35.9354
     0.652888      16.4120
     0.653051      1350.19
     0.653214      2072.83
     0.653378      24.2876
     0.653541      45.1012
     0.653704      97.8674
     0.653868      385.143
     0.654031      33.4333
     0.654195      71.9490
     0.654358      13.8997
     0.654522      146.787
     0.654685      28.7820
     0.654849      56.0018
     0.655013      117.697
     0.655177      250.805
     0.655340      2399.24
     0.655504      228.617
     0.655668      35.6760
     0.655832      481.179
     0.655996      139.764
     0.656160      87.0552
     0.656324      40.7759
     0.656488      347.614
     0.656652      58.1779
     0.656816      24.1478
     0.656981      130.864
     0.657145      72.9219
     0.657309      55.5371
     0.657473      21.9917
     0.657638      1156.62
     0.657802      1859.18
     0.657967      144.530
     0.658131      29.0923
     0.658296      154.914
     0.658460      5078.62
     0.658625      85.9942
     0.658790      4592.50
     0.658954      53.2728
     0.659119      4746.74
     0.659284      208.656
     0.659449      2773.92
     0.659613      56.7540
     0.659778      23.5464
     0.659943      103.224
     0.660108      35.6235
     0.660273      39.7108
     0.660438      450.234
     0.660603      256.206
     0.660769      17.0554
     0.660934      16.5166
     0.661099      28.1434
     0.661264      338.109
     0.661430      69.7682
     0.661595      23.6181
     0.661760      417.660
     0.661926      485.176
     0.662091      93.1410
     0.662257      21.7289
     0.662422      19.8509
     0.662588      23.0068
     0.662754      16.4256
     0.662919      15.1094
     0.663085      25.4719
     0.663251      118.766
     0.663417      84.7580
     0.663583      29.2215
     0.663748      733.786
     0.663914      1094.59
     0.664080      46.3747
     0.664246      55.8409
     0.664412      2224.93
     0.664578      132.644
     0.664745      34.4279
     0.664911      189.023
     0.665077      29.6144
     0.665243      18.3765
     0.665410      121.320
     0.665576      48.3708
     0.665742      89.4447
     0.665909      615.931
     0.666075      244.720
     0.666242      3628.52
     0.666408      342.690
     0.666575      471.226
     0.666742      27.8743
     0.666908      129.237
     0.667075      7.47859
     0.667242      14.5832
     0.667409      823.421
     0.667575      12.5160
     0.667742      3169.54
     0.667909      371.765
     0.668076      36.0336
     0.668243      38.3806
     0.668410      1207.93
     0.668577      15.7194
     0.668745      81.3251
     0.668912      32.7236
     0.669079      27.6216
     0.669246      121.116
     0.669414      152.589
     0.669581      235.614
     0.669748      487.336
     0.669916      436.186
     0.670083      57.8554
     0.670251      9.81468
     0.670418      97.1380
     0.670586      45.2964
     0.670754      110.056
     0.670921      32.5506
     0.671089      369.275
     0.671257      30.1228
     0.671425      646.360
     0.671592      68.0440
     0.671760      122.213
     0.671928      717.048
     0.672096      19.3349
     0.672264      43.3881
     0.672432      8.94387
     0.672600      31.4802
     0.672769      2191.94
     0.672937      130.549
     0.673105      57.1168
     0.673273      99.0565
     0.673442      228.495
     0.673610      32.9543
     0.673778      147.796
     0.673947      9.36848
     0.674115      17.7514
     0.674284      107.451
     0.674452      10.0353
     0.674621      11.5556
     0.674790      5.25742
     0.674958      8.35439
     0.675127      38.1531
     0.675296      4156.92
     0.675465      108.595
     0.675634      3750.57
     0.675803      119.772
     0.675971      14.2524
     0.676140      44.6268
     0.676309      16.6105
     0.676479      20.0689
     0.676648      853.783
     0.676817      15.7406
     0.676986      80.2446
     0.677155      131.751
     0.677325      53.4577
     0.677494      20.4425
     0.677663      48.1696
     0.677833      1682.31
     0.678002      3217.22
     0.678172      29.9008
     0.678341      16.9779
     0.678511      26.6405
     0.678680      28.7806
     0.678850      941.140
     0.679020      12.1758
     0.679190      636.346
     0.679359      19.1056
     0.679529      52.6600
     0.679699      29.8038
     0.679869      130.440
     0.680039      40.7867
     0.680209      29.3851
     0.680379      13.3957
     0.680549      66.4900
     0.680719      46.5106
     0.680889      291.489
     0.681060      61.7129
     0.681230      84.8142
     0.681400      11.7867
     0.681571      25.2729
     0.681741      18.6766
     0.681911      46.1469
     0.682082      8.65436
     0.682252      3.78239
     0.682423      534.576
     0.682594      11.3505
     0.682764      151.024
     0.682935      1017.40
     0.683106      14.6510
     0.683276      36.4400
     0.683447      3000.19
     0.683618      34.2572
     0.683789      23.4779
     0.683960      41.3943
     0.684131      11.5076
     0.684302      26.4063
     0.684473      9.79253
     0.684644      135.313
     0.684815      13.9656
     0.684987      33.5912
     0.685158      142.100
     0.685329      380.679
     0.685500      254.588
     0.685672      13.5023
     0.685843      12.2405
     0.686015      13.1031
     0.686186      817.288
     0.686358      216.319
     0.686529      61.9501
     0.686701      870.348
     0.686873      360.389
     0.687044      2769.36
     0.687216      1893.56
     0.687388      597.671
     0.687560      888.838
     0.687732      28.1805
     0.687904      341.594
     0.688076      28.2859
     0.688248      198.174
     0.688420      42.7646
     0.688592      556.092
     0.688764      709.554
     0.688936      243.485
     0.689108      8.56349
     0.689281      42.0832
     0.689453      135.990
     0.689625      60.5077
     0.689798      24.1089
     0.689970      62.1631
     0.690143      127.144
     0.690315      79.3031
     0.690488      74.6792
     0.690660      57.7098
     0.690833      101.748
     0.691006      194.513
     0.691178      5189.66
     0.691351      47.7033
     0.691524      214.824
     0.691697      302.244
     0.691870      23.5870
     0.692043      65.4290
     0.692216      23.3533
     0.692389      160.753
     0.692562      192.933
     0.692735      22.3957
     0.692908      88.3244
     0.693082      79.3899
     0.693255      86.8620
     0.693428      217.190
     0.693602      156.892
     0.693775      3389.18
     0.693948      50.6076
     0.694122      52.1238
     0.694295      3878.20
     0.694469      633.382
     0.694643      102.015
     0.694816      349.776
     0.694990      30.2342
     0.695164      594.108
     0.695337      124.711
     0.695511      278.908
     0.695685      22.3219
     0.695859      57.4160
     0.696033      555.923
     0.696207      121.493
     0.696381      319.972
     0.696555      33311.5
     0.696729      192.412
     0.696904      63.6521
     0.697078      34.1096
     0.697252      38.3588
     0.697426      21.9806
     0.697601      22.8899
     0.697775      34.4750
     0.697950      6.60372
     0.698124      36.6249
     0.698299      12.9008
     0.698473      35.6684
     0.698648      65.8278
     0.698822      25.1817
     0.698997      4664.42
     0.699172      160.114
     0.699347      180.247
     0.699522      23.7891
     0.699696      35.3676
     0.699871      24.6389
     0.700046      1377.22
     0.700221      162.388
     0.700396      18.8906
     0.700571      9.87267
     0.700747      21.1953
     0.700922      5.08484
     0.701097      10.1958
     0.701272      8.19411
     0.701448      119.490
     0.701623      31.0962
     0.701798      3050.81
     0.701974      47.4671
     0.702149      64.1449
     0.702325      101.283
     0.702500      62.5561
     0.702676      40.3211
     0.702852      34.6928
     0.703027      4839.27
     0.703203      48.0349
     0.703379      68.9122
     0.703555      274.269
     0.703731      14.7236
     0.703907      17.3010
     0.704083      11.1931
     0.704259      24.8400
     0.704435      61.8580
     0.704611      268.986
     0.704787      28.6665
     0.704963      13.4194
     0.705139      8.96646
     0.705316      77.8652
     0.705492      41.5774
     0.705668      22.0128
     0.705845      110.166
     0.706021      1073.89
     0.706198      103.485
     0.706374      288.923
     0.706551      186.128
     0.706728      43127.8
     0.706904      3163.23
     0.707081      141.299
     0.707258      268.270
     0.707435      82.4526
     0.707611      263.432
     0.707788      58.2164
     0.707965      9.61233
     0.708142      20.6773
     0.708319      65.3260
     0.708496      3233.50
     0.708674      250.289
     0.708851      212.720
     0.709028      38.0568
     0.709205      8.73602
     0.709382      19.0193
     0.709560      17.9857
     0.709737      16.1784
     0.709915      19.3598
     0.710092      108.226
     0.710270      47.9359
     0.710447      29.4330
     0.710625      25.0352
     0.710802      1011.23
     0.710980      200.204
     0.711158      16.5184
     0.711336      74.3318
     0.711514      130.334
     0.711691      15.9897
     0.711869      2.35517
     0.712047      3.37799
     0.712225      52.1292
     0.712403      2801.80
     0.712581      858.980
     0.712760      49.2091
     0.712938      95.8995
     0.713116      157.073
     0.713294      82.5867
     0.713473      13.9542
     0.713651      9.66358
     0.713829      26.0081
     0.714008      31.9022
     0.714186      135.871
     0.714365      31.1301
     0.714544      55.0076
     0.714722      7696.78
     0.714901      435.540
     0.715080      1080.00
     0.715258      35.8670
     0.715437      531.107
     0.715616      289.536
     0.715795      411.382
     0.715974      590.349
     0.716153      27.4124
     0.716332      163.861
     0.716511      26.2116
     0.716690      119.823
     0.716869      5523.16
     0.717048      101.230
     0.717228      37.5022
     0.717407      383.829
     0.717586      121.739
     0.717766      42.7311
     0.717945      56.3898
     0.718125      33.9138
     0.718304      34.3516
     0.718484      35.1758
     0.718663      56.2503
     0.718843      95.3887
     0.719023      150.083
     0.719203      174.008
     0.719382      21.9809
     0.719562      28.1522
     0.719742      17.9099
     0.719922      658.167
     0.720102      121.249
     0.720282      58.6436
     0.720462      14.3848
     0.720642      2840.42
     0.720822      3261.95
     0.721003      65.5914
     0.721183      439.354
     0.721363      107.122
     0.721543      12.2736
     0.721724      1072.21
     0.721904      396.200
     0.722085      38.0152
     0.722265      6.59301
     0.722446      22.6717
     0.722627      7.88137
     0.722807      14.5916
     0.722988      96.9850
     0.723169      150.134
     0.723349      110.503
     0.723530      47.5354
     0.723711      7.52230
     0.723892      10.0334
     0.724073      39.8526
     0.724254      393.918
     0.724435      467.940
     0.724616      157.949
     0.724797      41.8399
     0.724979      67.2417
     0.725160      14.0009
     0.725341      37.0173
     0.725522      206.868
     0.725704      159.019
     0.725885      186.717
     0.726067      28.9484
     0.726248      29.2146
     0.726430      595.453
     0.726611      221.927
     0.726793      81.0685
     0.726975      376.830
     0.727157      506.418
     0.727338      21779.5
     0.727520      120.325
     0.727702      49.2848
     0.727884      54.9916
     0.728066      49.5759
     0.728248      30.4575
     0.728430      1589.71
     0.728612      210.687
     0.728794      29.9729
     0.728976      21.6012
     0.729159      16.9803
     0.729341      42.0992
     0.729523      153.249
     0.729706      218.054
     0.729888      120.378
     0.730071      11.2683
     0.730253      13.7559
     0.730436      20.3015
     0.730618      69.7366
     0.730801      31.2381
     0.730984      14.0712
     0.731166      967.566
     0.731349      9.25021
     0.731532      911.718
     0.731715      17.5873
     0.731898      26.1110
     0.732081      40.4458
     0.732264      87.3706
     0.732447      186.713
     0.732630      13.4292
     0.732813      908.048
     0.732996      90.0153
     0.733180      33.5216
     0.733363      45.0624
     0.733546      65.2876
     0.733730      36.9633
     0.733913      93.7153
     0.734097      789.853
     0.734280      156.954
     0.734464      86.7667
     0.734647      53.0051
     0.734831      64.9711
     0.735015      341.163
     0.735198      44.5990
     0.735382      3992.81
     0.735566      50.4567
     0.735750      62.1538
     0.735934      104.582
     0.736118      101.699
     0.736302      51.4014
     0.736486      37.6081
     0.736670      117.575
     0.736854      30.8970
     0.737038      48.9687
     0.737223      5658.78
     0.737407      11.4211
     0.737591      75.9847
     0.737776      279.803
     0.737960      190.046
     0.738145      179.677
     0.738329      44734.3
     0.738514      42469.7
     0.738698      210.497
     0.738883      52.1543
     0.739068      17.0064
     0.739253      847.088
     0.739437      72.6686
     0.739622      43.3287
     0.739807      42.9072
     0.739992      41.0751
     0.740177      339.447
     0.740362      53.0292
     0.740547      20.6436
     0.740732      31.4752
     0.740918      86.2618
     0.741103      187.057
     0.741288      689.182
     0.741473      67.5872
     0.741659      21.5832
     0.741844      581.980
     0.742030      95.0080
     0.742215      292.912
     0.742401      135.951
     0.742586      666.566
     0.742772      13.1700
     0.742958      3719.57
     0.743143      29.9751
     0.743329      19.3432
     0.743515      2313.70
     0.743701      755.011
     0.743887      72.2839
     0.744073      44.1357
     0.744259      14.3083
     0.744445      499.475
     0.744631      25.5391
     0.744817      390.633
     0.745003      198.074
     0.745190      32.1776
     0.745376      44.8467
     0.745562      129.045
     0.745749      76.1242
     0.745935      51.3311
     0.746122      85.9583
     0.746308      39.5727
     0.746495      43.3412
     0.746681      15.2401
     0.746868      20.6851
     0.747055      773.434
     0.747241      58.5760
     0.747428      131.236
     0.747615      52.9228
     0.747802      17.8692
     0.747989      21.5749
     0.748176      817.927
     0.748363      936.501
     0.748550      18.4092
     0.748737      88.2951
     0.748924      79.0279
     0.749112      37.9956
     0.749299      78.0176
     0.749486      59.5949
     0.749674      49.1776
     0.749861      108.124
     0.750048      1978.56
     0.750236      58457.2
     0.750424      64953.1
     0.750611      18072.4
     0.750799      221.256
     0.750987      567.933
     0.751174      827.055
     0.751362      56354.4
     0.751550      51929.5
     0.751738      679.275
     0.751926      123.297
     0.752114      43.3271
     0.752302      167.017
     0.752490      475.600
     0.752678      57.0728
     0.752866      75.0967
     0.753054      126.244
     0.753243      71.8535
     0.753431      58.1689
     0.753619      89.4716
     0.753808      194.205
     0.753996      442.313
     0.754185      416.664
     0.754373      189.544
     0.754562      50.8098
     0.754750      27.5508
     0.754939      1001.13
     0.755128      28.4860
     0.755317      28.6915
     0.755505      39.9545
     0.755694      53.1637
     0.755883      14.9797
     0.756072      11.1690
     0.756261      8.26444
     0.756450      14.6001
     0.756639      126.359
     0.756829      1738.86
     0.757018      233.684
     0.757207      10.3746
     0.757396      60.6304
     0.757586      11.2871
     0.757775      19.1467
     0.757964      24.5132
     0.758154      18.3100
     0.758344      9.45305
     0.758533      2357.18
     0.758723      37.6809
     0.758912      2517.19
     0.759102      8.71737
     0.759292      22.5998
     0.759482      60.7964
     0.759672      124.081
     0.759862      234.444
     0.760051      13.1489
     0.760242      23.3957
     0.760432      41.0383
     0.760622      59.3274
     0.760812      520.760
     0.761002      90.4528
     0.761192      80.0918
     0.761383      33.2287
     0.761573      49.1313
     0.761763      306.117
     0.761954      95.9186
     0.762144      30.6849
     0.762335      88.0781
     0.762525      596.632
     0.762716      1501.37
     0.762907      625.416
     0.763097      11528.4
     0.763288      59657.2
     0.763479      64884.7
     0.763670      62746.4
     0.763861      13703.7
     0.764052      104.812
     0.764243      56.4198
     0.764434      54.2284
     0.764625      34.8407
     0.764816      3220.26
     0.765007      48.1285
     0.765199      310.891
     0.765390      483.300
     0.765581      23.3444
     0.765773      381.035
     0.765964      77.7732
     0.766156      258.168
     0.766347      17.0470
     0.766539      518.870
     0.766730      75.7909
     0.766922      335.601
     0.767114      13.9138
     0.767305      23.0368
     0.767497      8.86359
     0.767689      50.6330
     0.767881      327.638
     0.768073      27.3114
     0.768265      49.4378
     0.768457      122.563
     0.768649      26.6286
     0.768841      16.4936
     0.769034      31.0212
     0.769226      49.4705
     0.769418      52.1804
     0.769611      12.5224
     0.769803      367.970
     0.769995      212.972
     0.770188      34.4463
     0.770380      106.402
     0.770573      199.944
     0.770766      14.3737
     0.770958      622.100
     0.771151      60.0941
     0.771344      130.397
     0.771537      23.9972
     0.771730      31.6757
     0.771923      89.1571
     0.772116      21330.2
     0.772309      47413.9
     0.772502      46963.6
     0.772695      18190.1
     0.772888      440.933
     0.773081      216.463
     0.773274      215.204
     0.773468      99.8595
     0.773661      49.6749
     0.773855      38.8971
     0.774048      27.1923
     0.774242      169.699
     0.774435      48.9661
     0.774629      30.1114
     0.774822      43.5906
     0.775016      18.3875
     0.775210      10.9883
     0.775404      12.0320
     0.775597      9.33947
     0.775791      32.5530
     0.775985      11.7538
     0.776179      44.2245
     0.776373      21.1602
     0.776567      14.9487
     0.776762      25.1243
     0.776956      17.1143
     0.777150      106.413
     0.777344      10.8510
     0.777539      13.9462
     0.777733      20.9850
     0.777927      34.5682
     0.778122      13.3277
     0.778316      114.602
     0.778511      13.1754
     0.778706      91.6414
     0.778900      1240.10
     0.779095      42.3418
     0.779290      34.0517
     0.779485      20.0329
     0.779680      28.1747
     0.779874      1023.07
     0.780069      47.3647
     0.780264      57.0793
     0.780460      85.7262
     0.780655      49.9748
     0.780850      96.2614
     0.781045      93.4475
     0.781240      42.8247
     0.781436      231.566
     0.781631      61.7930
     0.781826      4077.65
     0.782022      36.5706
     0.782217      167.244
     0.782413      104.585
     0.782608      19.5257
     0.782804      14.2148
     0.783000      32.4781
     0.783196      23.1523
     0.783391      118.735
     0.783587      133.181
     0.783783      7.64494
     0.783979      234.000
     0.784175      637.243
     0.784371      47.4308
     0.784567      198.172
     0.784763      4253.51
     0.784960      125.286
     0.785156      5.85509
     0.785352      17.9815
     0.785548      73.2639
     0.785745      24.4314
     0.785941      15.8089
     0.786138      173.966
     0.786334      95.5923
     0.786531      440.182
     0.786727      230.141
     0.786924      96.8583
     0.787121      12.3615
     0.787318      16.3094
     0.787514      20.3053
     0.787711      52.7937
     0.787908      43.0641
     0.788105      38.2839
     0.788302      39.0667
     0.788499      26.8209
     0.788696      639.520
     0.788894      38.5334
     0.789091      2019.21
     0.789288      70.8549
     0.789485      22.5626
     0.789683      34.9309
     0.789880      181.724
     0.790078      409.084
     0.790275      59.1048
     0.790473      61.6215
     0.790670      58.4987
     0.790868      101.405
     0.791066      182.501
     0.791264      63.7580
     0.791461      40.5850
     0.791659      269.036
     0.791857      26.2338
     0.792055      30.9796
     0.792253      74.9772
     0.792451      75.9842
     0.792649      82.9369
     0.792848      57.8927
     0.793046      41.8028
     0.793244      32.0447
     0.793442      15.9317
     0.793641      27.2166
     0.793839      373.928
     0.794038      15.6656
     0.794236      427.491
     0.794435      101.534
     0.794633      14252.0
     0.794832      46218.6
     0.795031      3456.43
     0.795229      53.5789
     0.795428      187.213
     0.795627      78.5295
     0.795826      23.1571
     0.796025      87.2825
     0.796224      81.0024
     0.796423      28.4918
     0.796622      20.7461
     0.796821      15.8573
     0.797020      36.9944
     0.797220      394.158
     0.797419      93.3741
     0.797618      6.82100
     0.797818      3767.85
     0.798017      46.2974
     0.798217      48.4086
     0.798416      29.5273
     0.798616      21.8682
     0.798815      252.095
     0.799015      32.0081
     0.799215      119.726
     0.799415      226.377
     0.799615      112.576
     0.799815      43.2011
     0.800014      80.2778
     0.800214      52.2411
     0.800415      17712.2
     0.800615      49142.9
     0.800815      17516.3
     0.801015      86.8377
     0.801215      26495.7
     0.801416      47168.1
     0.801616      46539.1
     0.801816      6685.46
     0.802017      95.4165
     0.802217      397.789
     0.802418      137.292
     0.802618      201.210
     0.802819      16.7140
     0.803020      250.961
     0.803221      1918.23
     0.803421      40.3085
     0.803622      431.124
     0.803823      221.531
     0.804024      29.8896
     0.804225      25.2586
     0.804426      40.9286
     0.804627      721.139
     0.804828      17.3082
     0.805030      52.0603
     0.805231      1015.70
     0.805432      817.316
     0.805633      33.1327
     0.805835      28.0268
     0.806036      25.9175
     0.806238      221.129
     0.806439      23.8601
     0.806641      268.621
     0.806843      12.6550
     0.807044      11.3326
     0.807246      11.8646
     0.807448      13.5805
     0.807650      132.108
     0.807852      9.41276
     0.808054      83.5090
     0.808256      16.3975
     0.808458      210.088
     0.808660      31.7502
     0.808862      56.6405
     0.809064      8.77778
     0.809267      954.574
     0.809469      269.012
     0.809671      57.8140
     0.809874      100.196
     0.810076      6169.75
     0.810279      60883.6
     0.810481      63734.9
     0.810684      11182.2
     0.810887      41.2536
     0.811089      14340.7
     0.811292      63293.0
     0.811495      64781.8
     0.811698      64798.3
     0.811901      29659.0
     0.812104      283.725
     0.812307      303.061
     0.812510      80.1821
     0.812713      75.3203
     0.812916      558.722
     0.813119      54.3623
     0.813322      23.4397
     0.813526      24.0898
     0.813729      100.278
     0.813933      966.135
     0.814136      61.6602
     0.814340      3390.01
     0.814543      28.5164
     0.814747      8.31131
     0.814951      43.1638
     0.815154      97.7407
     0.815358      162.859
     0.815562      175.924
     0.815766      143.782
     0.815970      1522.05
     0.816174      58.1241
     0.816378      82.3270
     0.816582      66.5846
     0.816786      13.6373
     0.816990      670.741
     0.817195      105.237
     0.817399      26.0118
     0.817603      19.5095
     0.817808      222.423
     0.818012      60.7113
     0.818217      56.3255
     0.818421      35.4314
     0.818626      2280.95
     0.818830      11.2507
     0.819035      19.2066
     0.819240      13.7980
     0.819445      50.7329
     0.819649      27.8857
     0.819854      23.2881
     0.820059      13.0287
     0.820264      167.203
     0.820469      21.4754
     0.820675      83.1752
     0.820880      55.0632
     0.821085      43.5479
     0.821290      82.5772
     0.821496      91.6553
     0.821701      66.1046
     0.821906      7.91490
     0.822112      48.3968
     0.822317      62.2117
     0.822523      116.151
     0.822729      91.8865
     0.822934      3.79226
     0.823140      127.281
     0.823346      22.2619
     0.823552      33.9560
     0.823757      11.2563
     0.823963      14.9650
     0.824169      26.0820
     0.824375      28.4107
     0.824582      35.9193
     0.824788      27.6591
     0.824994      34.1697
     0.825200      2182.00
     0.825406      407.248
     0.825613      96.0176
     0.825819      23.5975
     0.826026      365.885
     0.826232      2979.36
     0.826439      46315.6
     0.826645      11112.6
     0.826852      95.9951
     0.827059      31.7832
     0.827265      26.0699
     0.827472      1148.71
     0.827679      56.1474
     0.827886      9.59717
     0.828093      9.12365
     0.828300      18.8358
     0.828507      21.7971
     0.828714      29.8626
     0.828921      35.4659
     0.829129      31.3795
     0.829336      78.5415
     0.829543      95.0797
     0.829751      121.433
     0.829958      15.3341
     0.830166      19.9074
     0.830373      63.2605
     0.830581      93.2167
     0.830788      89.0018
     0.830996      60.5541
     0.831204      52.4408
     0.831412      11.9011
     0.831619      28.7506
     0.831827      19.3941
     0.832035      1306.49
     0.832243      29.6154
     0.832451      54.9209
     0.832659      64.2257
     0.832868      36.2776
     0.833076      4957.62
     0.833284      168.350
     0.833492      68.9856
     0.833701      50.9568
     0.833909      41.2248
     0.834118      43.7319
     0.834326      30.8845
     0.834535      34.6516
     0.834743      55.8299
     0.834952      18.1605
     0.835161      28.2035
     0.835370      21.9654
     0.835579      54.3887
     0.835787      369.905
     0.835996      38.8917
     0.836205      16.9352
     0.836414      20.6640
     0.836624      199.842
     0.836833      235.779
     0.837042      47.6893
     0.837251      42.7648
     0.837460      74.4115
     0.837670      119.104
     0.837879      160.102
     0.838089      25.5631
     0.838298      20.7369
     0.838508      519.157
     0.838717      50.3773
     0.838927      138.717
     0.839137      263.332
     0.839347      110.546
     0.839556      60.3880
     0.839766      39.1058
     0.839976      108.611
     0.840186      74.6928
     0.840396      387.551
     0.840606      4070.54
     0.840817      64312.4
     0.841027      7752.96
     0.841237      228.584
     0.841447      34.5042
     0.841658      2842.41
     0.841868      360.149
     0.842079      1634.47
     0.842289      26253.3
     0.842500      46961.6
     0.842710      12988.2
     0.842921      111.801
     0.843132      36.5663
     0.843343      30.4375
     0.843553      44.6001
     0.843764      35.2652
     0.843975      50.6441
     0.844186      20.2925
     0.844397      76.5920
     0.844608      4236.43
     0.844819      7.91705
     0.845031      50.6366
     0.845242      17.6755
     0.845453      30.9253
     0.845665      36.2190
     0.845876      10.7713
     0.846088      11.5948
     0.846299      10.6477
     0.846511      576.788
     0.846722      19.0051
     0.846934      21.1717
     0.847146      226.590
     0.847357      20.2976
     0.847569      28.5421
     0.847781      3998.78
     0.847993      18.8689
     0.848205      9.06970
     0.848417      28.8220
     0.848629      36.6178
     0.848841      32.1390
     0.849054      287.361
     0.849266      24.5436
     0.849478      24.6442
     0.849691      200.166
     0.849903      15.1359
     0.850115      91.8310
     0.850328      2.59515
     0.850541      12.8027
     0.850753      16.5805
     0.850966      236.127
     0.851179      40.3517
     0.851391      41.8326
     0.851604      181.066
     0.851817      193.565
     0.852030      20298.4
     0.852243      17139.5
     0.852456      221.069
     0.852669      54.6264
     0.852883      22.0230
     0.853096      27.9851
     0.853309      22.1247
     0.853522      15.8498
     0.853736      8.74070
     0.853949      184.288
     0.854163      20.3566
     0.854376      181.561
     0.854590      17.5287
     0.854803      19.8714
     0.855017      7.91863
     0.855231      10.8193
     0.855445      578.140
     0.855659      168.204
     0.855872      37.7461
     0.856086      55.9298
     0.856300      18.0312
     0.856515      30.5783
     0.856729      24.1981
     0.856943      17.1415
     0.857157      17.1557
     0.857371      1900.22
     0.857586      41.3567
     0.857800      195.681
     0.858015      12.9694
     0.858229      9.30302
     0.858444      21.7428
     0.858658      13.9064
     0.858873      29.2499
     0.859088      101.012
     0.859302      118.572
     0.859517      6.97993
     0.859732      21.2197
     0.859947      21.4428
     0.860162      16.7724
     0.860377      56.1075
     0.860592      2434.81
     0.860807      25.4751
     0.861022      6.96750
     0.861238      7.61964
     0.861453      7.04202
     0.861668      67.9807
     0.861884      25.0185
     0.862099      1270.86
     0.862315      33.9985
     0.862530      10.2694
     0.862746      10.3474
     0.862962      23.8587
     0.863177      27.0347
     0.863393      9.35790
     0.863609      25.5364
     0.863825      59.9330
     0.864041      237.569
     0.864257      35.9517
     0.864473      123.764
     0.864689      16.1716
     0.864905      40.6239
     0.865122      10.9046
     0.865338      5.33880
     0.865554      41.8764
     0.865771      10.7646
     0.865987      10.5988
     0.866203      18.0453
     0.866420      51.6610
     0.866637      1878.32
     0.866853      21487.8
     0.867070      51.2585
     0.867287      16.2729
     0.867504      21.4794
     0.867720      29.7794
     0.867937      424.320
     0.868154      39.4886
     0.868371      18.2473
     0.868589      50.5895
     0.868806      70.7177
     0.869023      27.7568
     0.869240      30.4963
     0.869457      33.6425
     0.869675      15.5013
     0.869892      28.5643
     0.870110      80.5749
     0.870327      67.3722
     0.870545      82.3940
     0.870762      65.5037
     0.870980      1466.87
     0.871198      36.2785
     0.871416      67.6040
     0.871634      18.4206
     0.871851      37.0689
     0.872069      55.4808
     0.872287      57.9655
     0.872505      58.1208
     0.872724      37.8415
     0.872942      36.7488
     0.873160      302.914
     0.873378      65.3096
     0.873597      54.5205
     0.873815      11.4469
     0.874034      49.3932
     0.874252      17.7105
     0.874471      32.5311
     0.874689      506.040
     0.874908      1763.63
     0.875127      19.6183
     0.875345      19.7193
     0.875564      15.7383
     0.875783      1356.30
     0.876002      179.784
     0.876221      1446.67
     0.876440      13.3310
     0.876659      244.464
     0.876878      28.7953
     0.877098      380.175
     0.877317      301.349
     0.877536      424.487
     0.877756      11.6115
     0.877975      17.9635
     0.878195      37.1459
     0.878414      81.8122
     0.878634      7.87197
     0.878853      11.8915
     0.879073      31.3153
     0.879293      166.734
     0.879513      30.8511
     0.879733      36.3072
     0.879952      537.253
     0.880172      6.27243
     0.880392      157.536
     0.880613      34.3787
     0.880833      25.0458
     0.881053      32.6099
     0.881273      26.2513
     0.881494      9.73806
     0.881714      185.963
     0.881934      295.592
     0.882155      131.813
     0.882375      16.2481
     0.882596      14.7164
     0.882817      20.9688
     0.883037      39.2296
     0.883258      10.6219
     0.883479      10.6119
     0.883700      24.6955
     0.883921      15.0364
     0.884142      774.354
     0.884363      27.3064
     0.884584      6.66924
     0.884805      52.9461
     0.885026      718.775
     0.885247      57.0164
     0.885469      86.8837
     0.885690      48.7372
     0.885911      107.053
     0.886133      41.3764
     0.886355      28.3751
     0.886576      107.715
     0.886798      1022.67
     0.887019      30.2543
     0.887241      22.2942
     0.887463      115.891
     0.887685      10.1558
     0.887907      5.90286
     0.888129      16.2942
     0.888351      10.0275
     0.888573      11.8461
     0.888795      11.9454
     0.889017      143.850
     0.889239      317.915
     0.889462      35.1739
     0.889684      16.5442
     0.889907      22.6343
     0.890129      9.46549
     0.890352      13.1405
     0.890574      90.8375
     0.890797      25.3176
     0.891020      27.2001
     0.891242      12.5901
     0.891465      14.1126
     0.891688      25.8025
     0.891911      24.4086
     0.892134      24.3273
     0.892357      21.4568
     0.892580      18.0491
     0.892803      60.3519
     0.893026      62.0524
     0.893250      38.5566
     0.893473      12.9941
     0.893696      13.6511
     0.893920      18.2696
     0.894143      54.5105
     0.894367      11.2671
     0.894590      10.1470
     0.894814      199.424
     0.895038      27.2722
     0.895261      12.4898
     0.895485      397.248
     0.895709      57.8795
     0.895933      8.13439
     0.896157      225.051
     0.896381      60.0883
     0.896605      63.0791
     0.896829      3586.18
     0.897053      323.353
     0.897278      73.9413
     0.897502      35.3202
     0.897726      27.9789
     0.897951      46.4241
     0.898175      46.9684
     0.898400      60.4583
     0.898624      268.047
     0.898849      276.889
     0.899074      169.750
     0.899299      82.0373
     0.899523      220.176
     0.899748      197.381
     0.899973      28.1117
     0.900198      23.3112
     0.900423      16.2618
     0.900648      19.3283
     0.900874      165.992
     0.901099      37.9530
     0.901324      108.682
     0.901549      229.299
     0.901775      241.604
     0.902000      12.6841
     0.902226      19.2267
     0.902451      16.4602
     0.902677      33.2317
     0.902903      20.2354
     0.903128      126.509
     0.903354      19.6066
     0.903580      24.8714
     0.903806      60.5647
     0.904032      35.7374
     0.904258      6.76817
     0.904484      80.6389
     0.904710      1187.40
     0.904936      1700.90
     0.905162      19.6542
     0.905389      133.656
     0.905615      68.4861
     0.905841      83.2638
     0.906068      117.365
     0.906294      556.807
     0.906521      71.9804
     0.906748      362.483
     0.906974      31.9031
     0.907201      70.5647
     0.907428      810.263
     0.907655      299.764
     0.907882      34.7238
     0.908109      20.8672
     0.908336      37.4823
     0.908563      59.2317
     0.908790      35.3324
     0.909017      106.676
     0.909244      7.34225
     0.909472      1354.64
     0.909699      10.8377
     0.909926      76.3530
     0.910154      29.3592
     0.910381      27.6127
     0.910609      209.804
     0.910837      91.0140
     0.911064      61.5179
     0.911292      44.2689
     0.911520      65.9273
     0.911748      126.338
     0.911976      33864.9
     0.912204      48235.2
     0.912432      45941.0
     0.912660      2143.36
     0.912888      120.010
     0.913116      58.6756
     0.913345      31.6147
     0.913573      98.2802
     0.913801      24.5872
     0.914030      114.549
     0.914258      16.7803
     0.914487      11.3263
     0.914715      19.1718
     0.914944      12.0098
     0.915173      18.5342
     0.915402      17.5754
     0.915631      72.5599
     0.915859      50.5684
     0.916088      10.3580
     0.916317      4.56453
     0.916546      181.927
     0.916776      23.1665
     0.917005      31.4005
     0.917234      6.15306
     0.917463      6.78302
     0.917693      6.53490
     0.917922      131.670
     0.918152      15.1810
     0.918381      7.43630
     0.918611      8.47048
     0.918840      17.5109
     0.919070      14.4815
     0.919300      104.666
     0.919530      3995.56
     0.919760      527.793
     0.919990      207.340
     0.920220      89.4235
     0.920450      3966.42
     0.920680      17.1356
     0.920910      103.955
     0.921140      24.8227
     0.921370      19.3661
     0.921601      54.2216
     0.921831      102.193
     0.922062      309.912
     0.922292      20694.4
     0.922523      36029.1
     0.922753      588.094
     0.922984      65.0680
     0.923215      79.7493
     0.923446      69.0489
     0.923676      8.89275
     0.923907      48.0087
     0.924138      32.2531
     0.924369      15.1588
     0.924600      24.1567
     0.924832      12.5751
     0.925063      33.9892
     0.925294      19.4489
     0.925525      17.8960
     0.925757      47.8660
     0.925988      158.645
     0.926220      127.548
     0.926451      56.4949
     0.926683      2135.00
     0.926915      72.0880
     0.927146      66.2683
     0.927378      11.2616
     0.927610      1248.76
     0.927842      3.82923
     0.928074      26.7483
     0.928306      10.1779
     0.928538      14.5913
     0.928770      9.05680
     0.929002      596.830
     0.929234      2063.29
     0.929467      29.4730
     0.929699      2.49758
     0.929932      15.8578
     0.930164      6.95837
     0.930397      7.04673
     0.930629      9.13903
     0.930862      62.3994
     0.931095      30.4783
     0.931327      7.91520
     0.931560      4.48941
     0.931793      40.5621
     0.932026      10.9861
     0.932259      13.7504
     0.932492      13.0005
     0.932725      31.3766
     0.932958      17.8832
     0.933192      13.8397
     0.933425      77.7828
     0.933658      32.4183
     0.933892      12.7374
     0.934125      255.478
     0.934359      35.4055
     0.934592      20.6214
     0.934826      14.7742
     0.935060      29.9956
     0.935293      2137.76
     0.935527      6743.57
     0.935761      24.3957
     0.935995      30.7557
     0.936229      56.9784
     0.936463      34.0799
     0.936697      32.5922
     0.936931      15.6318
     0.937166      21.4068
     0.937400      19.4330
     0.937634      14.5150
     0.937869      61.4302
     0.938103      21.5883
     0.938338      788.959
     0.938572      5.76036
     0.938807      140.982
     0.939042      102.247
     0.939276      24.9713
     0.939511      10.8924
     0.939746      49.8507
     0.939981      4404.74
     0.940216      135.368
     0.940451      36.3542
     0.940686      11.0168
     0.940921      155.730
     0.941157      5.04633
     0.941392      37.5433
     0.941627      6.47857
     0.941863      8.36348
     0.942098      94.3140
     0.942334      34.9471
     0.942569      14.5611
     0.942805      16.0703
     0.943040      214.075
     0.943276      325.893
     0.943512      12.1861
     0.943748      30.1716
     0.943984      14.1396
     0.944220      16.6045
     0.944456      9.27154
     0.944692      13.0239
     0.944928      9.97779
     0.945164      11.0944
     0.945401      20.0057
     0.945637      26.5956
     0.945873      305.247
     0.946110      631.495
     0.946347      4.98052
     0.946583      17.2875
     0.946820      173.353
     0.947056      416.966
     0.947293      10.8917
     0.947530      1510.37
     0.947767      155.429
     0.948004      13.0109
     0.948241      25.7041
     0.948478      7.29621
     0.948715      42.9170
     0.948952      7.44052
     0.949189      16.6279
     0.949427      623.524
     0.949664      4924.63
     0.949902      36.1543
     0.950139      80.1276
     0.950377      28.5041
     0.950614      529.595
     0.950852      88.5027
     0.951090      50.1238
     0.951327      17.4444
     0.951565      16.6281
     0.951803      16.5524
     0.952041      10.4615
     0.952279      10.5262
     0.952517      12.5780
     0.952755      14.2264
     0.952993      8.35167
     0.953232      14.3496
     0.953470      60.9138
     0.953708      33.4414
     0.953947      20.7467
     0.954185      21.4351
     0.954424      16.2990
     0.954662      19.0087
     0.954901      24.5339
     0.955140      17.1121
     0.955379      46.6351
     0.955617      18.3697
     0.955856      9.95688
     0.956095      607.911
     0.956334      11.0742
     0.956573      12.9473
     0.956812      36.0777
     0.957052      13.5272
     0.957291      5.67609
     0.957530      8.65712
     0.957770      22.9580
     0.958009      6.35197
     0.958249      85.1322
     0.958488      4.66226
     0.958728      25.5734
     0.958967      16.5606
     0.959207      5.55087
     0.959447      27.7763
     0.959687      3.24597
     0.959927      12.8878
     0.960167      48.2377
     0.960407      6.67997
     0.960647      8.90669
     0.960887      21.1201
     0.961127      7.47799
     0.961368      17.2430
     0.961608      4.37080
     0.961848      23.7325
     0.962089      29.9427
     0.962329      25.4941
     0.962570      31.3503
     0.962811      31.3831
     0.963051      339.781
     0.963292      621.164
     0.963533      4.88801
     0.963774      10.1889
     0.964015      15.4705
     0.964256      62.8306
     0.964497      11.1110
     0.964738      20.9573
     0.964979      30.1924
     0.965220      96.0627
     0.965462      298.362
     0.965703      39075.8
     0.965944      20617.1
     0.966186      105.517
     0.966427      1311.67
     0.966669      162.434
     0.966911      21.6484
     0.967152      19.2779
     0.967394      81.1921
     0.967636      109.031
     0.967878      51.1998
     0.968120      23.9529
     0.968362      11.1216
     0.968604      15.5989
     0.968846      9.55500
     0.969088      3.43023
     0.969331      5.24312
     0.969573      40.8051
     0.969815      22.8220
     0.970058      2313.95
     0.970300      190.295
     0.970543      11.1289
     0.970786      6.49344
     0.971028      6.61608
     0.971271      25.0893
     0.971514      22.9465
     0.971757      26.8125
     0.972000      6.38664
     0.972243      9.10227
     0.972486      3.91039
     0.972729      9.57781
     0.972972      6.20258
     0.973215      8.97033
     0.973459      12.5872
     0.973702      6.92139
     0.973945      28.6300
     0.974189      6.59852
     0.974432      47.4426
     0.974676      1499.17
     0.974920      16.8958
     0.975163      3.26264
     0.975407      11.3767
     0.975651      28.3718
     0.975895      30.0025
     0.976139      7.61154
     0.976383      2.54101
     0.976627      1.48092
     0.976871      4.82674
     0.977115      4.82331
     0.977360      23.4825
     0.977604      11.0622
     0.977848      21.9896
     0.978093      60.0701
     0.978337      9171.28
     0.978582      5644.52
     0.978827      30.0454
     0.979071      8.46694
     0.979316      15.1003
     0.979561      177.456
     0.979806      10.9703
     0.980051      20.7593
     0.980296      76.1106
     0.980541      2.09321
     0.980786      7.28649
     0.981031      25.8060
     0.981277      723.312
     0.981522      59.4121
     0.981767      19.9468
     0.982013      22.7099
     0.982258      6.50658
     0.982504      134.384
     0.982749      1683.08
     0.982995      11.6261
     0.983241      3120.24
     0.983487      150.950
     0.983732      19.0863
     0.983978      13.0014
     0.984224      11.3679
     0.984470      11.7092
     0.984717      13.1399
     0.984963      70.9849
     0.985209      7.57370
     0.985455      87.0438
     0.985702      22.5196
     0.985948      12.6662
     0.986195      6.13536
     0.986441      21.5241
     0.986688      16.8226
     0.986934      17.3989
     0.987181      17.4367
     0.987428      22.3804
     0.987675      6.30015
     0.987922      5.61237
     0.988169      14.5716
     0.988416      5.72497
     0.988663      6.61380
     0.988910      4.79789
     0.989157      2.91060
     0.989404      1.73762
     0.989652      16.0431
     0.989899      6.81729
     0.990147      11.4873
     0.990394      3.10898
     0.990642      37.8730
     0.990889      9.37973
     0.991137      24.3383
     0.991385      8.67105
     0.991633      20.8348
     0.991881      8.18457
     0.992129      3.92421
     0.992377      3.34969
     0.992625      4.31431
     0.992873      6.37767
     0.993121      4.98554
     0.993370      5.55640
     0.993618      8.39163
     0.993866      5.13467
     0.994115      3.39013
     0.994363      50.5061
     0.994612      6.43589
     0.994861      19.6589
     0.995109      58.7268
     0.995358      27.9711
     0.995607      6.79161
     0.995856      13.2851
     0.996105      10.7298
     0.996354      28.3505
     0.996603      34.9873
     0.996852      6.80006
     0.997101      44.7824
     0.997350      29.5451
     0.997600      10.8781
     0.997849      18.9390
     0.998099      5.66474
     0.998348      5.18889
     0.998598      94.8013
     0.998847      176.307
     0.999097      8.15863
     0.999347      54.4020
     0.999597      7.50957
     0.999847      12.6275
      1.00010      5.58875
      1.00035      8.70547
      1.00060      5.30589
      1.00085      8.89880
      1.00110      9.40129
      1.00135      16.5507
      1.00160      6.35612
      1.00185      10.2338
      1.00210      15.1829
      1.00235      13.7113
      1.00260      7.51861
      1.00285      42.5785
      1.00310      19.6879
      1.00335      11.9472
      1.00360      4.49644
      1.00385      178.281
      1.00410      6.91649
      1.00436      2.65045
      1.00461      7.35612
      1.00486      12.0100
      1.00511      326.540
      1.00536      35.2351
      1.00561      6.04244
      1.00586      5.03036
      1.00611      6.36908
      1.00637      5.37095
      1.00662      5.80141
      1.00687      30.7159
      1.00712      1.64655
      1.00737      1.08022
      1.00762     0.462637
      1.00788      2.23328
      1.00813      3.49205
      1.00838      49.6955
      1.00863      10.5551
      1.00888      12.4460
      1.00914      3.87835
      1.00939      6.70671
      1.00964      4.81933
      1.00989      4.04992
      1.01015      3.63526
      1.01040      8.76952
      1.01065      3.12617
      1.01090      4.60365
      1.01116      22.9591
      1.01141      1.88128
      1.01166      1.80399
      1.01192      7.58472
      1.01217      5.84489
      1.01242      5.72890
      1.01267      5.11044
      1.01293      7.62290
      1.01318      9.12926
      1.01343      78.5251
      1.01369      12.0941
      1.01394      18.7087
      1.01419      74.0677
      1.01445      36.3790
      1.01470      5.13097
      1.01496      2.96466
      1.01521      7.07312
      1.01546      6.49584
      1.01572      7.89065
      1.01597      7.37117
      1.01622      40.2238
      1.01648      12.1898
      1.01673      5.42969
      1.01699      8.32404
      1.01724      3.62129
      1.01750      18.9855
      1.01775      27.6776
      1.01800      7.67953
      1.01826      3.87207
      1.01851      6.48358
      1.01877      10.6826
      1.01902      2.02746
      1.01928      4.98113
      1.01953      5.44609
      1.01979      6.74605
      1.02004      6.94903
      1.02030      8.15649
      1.02055      4.96867
      1.02081      8.78996
      1.02106      6.33157
      1.02132      2.53143
      1.02157      1.59762
      1.02183      13.9013
      1.02208      7.54450
      1.02234      4.76866
      1.02260      4.31560
      1.02285      7.26688
      1.02311      7.14890
      1.02336      3.19930
      1.02362      6.63944
      1.02387      1.52368
      1.02413      3.48458
      1.02439      4.08553
      1.02464      10.8001
      1.02490      6.27416
      1.02515      17.3564
      1.02541      24.0911
      1.02567      6.76158
      1.02592      1.42181
      1.02618      1.35636
      1.02644      2.33011
      1.02669      3.44728
      1.02695      4.05657
      1.02721      3.90492
      1.02746      3.23868
      1.02772      2.83942
      1.02798      2.91036
      1.02823      12.8635
      1.02849      2.33039
      1.02875      2.34670
      1.02901      3.10582
      1.02926      11.6344
      1.02952      1.86005
      1.02978      2.39811
      1.03004      5.71068
      1.03029      5.59754
      1.03055      4.93897
      1.03081      35.3756
      1.03107      6.97750
      1.03132      5.52970
      1.03158      12.4194
      1.03184      3.64116
      1.03210      2.23943
      1.03236      4.44140
      1.03261      1.28376
      1.03287      2.36528
      1.03313      7.92526
      1.03339      54.2602
      1.03365      1.67296
      1.03390      2.00770
      1.03416      3.28756
      1.03442      1.76357
      1.03468      3.91356
      1.03494      10.7101
      1.03520      6.43588
      1.03546      2.28082
      1.03572      4.32341
      1.03597      4.86916
      1.03623      1.83492
      1.03649      3.17320
      1.03675      1.59045
      1.03701      4.95019
      1.03727      3.63070
      1.03753      2.17398
      1.03779      2.36946
      1.03805      1.85894
      1.03831      1.77445
      1.03857      1.66359
      1.03883      3.13328
      1.03909      1.66914
      1.03935      2.61641
      1.03961      1.44175
      1.03987      1.41893
      1.04013      1.71603
      1.04039      2.31226
      1.04065      1.70669
      1.04091      2.15381
      1.04117      2.13060
      1.04143      1.75245
      1.04169     0.960844
      1.04195      3.76551
      1.04221      1.89572
      1.04247      3.10405
      1.04273      50.5682
      1.04299      50.3100
      1.04325      10.6471
      1.04351      1.16023
      1.04377      1.34000
      1.04403      1.35607
      1.04429      1.08861
      1.04456     0.944576
      1.04482      1.91329
      1.04508      2.94975
      1.04534      2.24824
      1.04560      1.59316
      1.04586      3.75038
      1.04612      1.39038
      1.04638      2.28501
      1.04665      27.1439
      1.04691      1763.00
      1.04717      125.953
      1.04743      8.73320
      1.04769      287.445
      1.04796      37.8931
      1.04822      3.50051
      1.04848      1.24017
      1.04874      1.53438
      1.04900      2.67556
      1.04927      7.29076
      1.04953      18.4405
      1.04979      9.29157
      1.05005      1.86672
      1.05032      4.99833
      1.05058      44.5253
      1.05084      2.73241
      1.05110      3.96577
      1.05137      2.19405
      1.05163      3.04476
      1.05189      3.44910
      1.05215      3.85354
